
Integration time [ms]: 1000.000
Averaging Nr. [scans]: 1
Smoothing Nr. [pixels]: 0
Data measured with spectrometer [name]: 1308032U1
Wave   ;Sample   ;Dark     ;Reference;Scope
[nm]   ;[counts] ;[counts] ;[counts] 

175.728; 3698.667;  654.278; 3579.056
176.329; 3453.667;  569.278; 3311.056
176.930; 3553.667;  627.278; 3417.056
177.530; 3381.667;  545.278; 3324.056
178.131; 3006.667;  339.278; 2905.056
178.732; 3040.667;  510.278; 2899.056
179.332; 3010.667;  533.278; 2879.056
179.933; 3730.667;  654.278; 3708.056
180.534; 2894.667;  485.278; 2755.056
181.134; 2746.667;  480.278; 2716.056
181.735; 2513.667;  402.278; 2447.056
182.335; 2566.667;  425.278; 2561.056
182.936; 2524.667;  406.278; 2423.056
183.536; 2338.667;  381.278; 2199.056
184.137; 2494.667;  405.278; 2385.056
184.737; 2200.667;  376.278; 2163.056
185.338; 2342.667;  339.278; 2260.056
185.938; 2199.667;  356.278; 2141.056
186.538; 2328.667;  361.278; 2225.056
187.139; 2218.667;  317.278; 2074.056
187.739; 2163.667;  347.278; 2103.056
188.339; 2024.667;  308.278; 1973.056
188.939; 2219.667;  335.278; 2086.056
189.540; 2039.667;  309.278; 2024.056
190.140; 1906.667;  275.278; 1752.056
190.740; 1901.667;  258.278; 1773.056
191.340; 2053.667;  319.278; 1948.056
191.940; 1759.667;  268.278; 1720.056
192.540; 1929.667;  289.278; 1829.056
193.140; 1698.667;  244.278; 1611.056
193.740; 1716.667;  254.278; 1590.056
194.340; 1782.667;  260.278; 1665.056
194.940; 1705.667;  237.278; 1665.056
195.540; 1654.667;  241.278; 1616.056
196.140; 1740.667;  263.278; 1653.056
196.740; 1781.667;  262.278; 1770.056
197.340; 1474.667;  217.278; 1418.056
197.940; 1654.667;  223.278; 1602.056
198.539; 1418.667;  163.278; 1337.056
199.139; 1383.667;  196.278; 1322.056
199.739; 1578.667;  216.278; 1524.056
200.339; 1578.667;  235.278; 1400.056
200.938; 1554.667;  206.278; 1404.056
201.538; 1434.667;  208.278; 1418.056
202.138; 1339.667;  159.278; 1326.056
202.737; 1394.667;  179.278; 1313.056
203.337; 1516.667;  222.278; 1427.056
203.936; 1264.667;  176.278; 1249.056
204.536; 1380.667;  159.278; 1310.056
205.135; 1447.667;  198.278; 1346.056
205.735; 1418.667;  154.278; 1342.056
206.334; 1317.667;  202.278; 1301.056
206.934; 1401.667;  191.278; 1372.056
207.533; 1317.667;  168.278; 1282.056
208.132; 1417.667;  172.278; 1280.056
208.732; 1544.667;  182.278; 1440.056
209.331; 1388.667;  158.278; 1358.056
209.930; 1582.667;  226.278; 1557.056
210.529; 1374.667;  181.278; 1276.056
211.129; 1324.667;  161.278; 1233.056
211.728; 1669.667;  224.278; 1585.056
212.327; 1319.667;  152.278; 1178.056
212.926; 1394.667;  106.278; 1308.056
213.525; 1406.667;  173.278; 1383.056
214.124; 1231.667;  167.278; 1172.056
214.723; 1242.667;  169.278; 1200.056
215.322; 1183.667;   97.278; 1060.056
215.921; 1202.667;  156.278; 1095.056
216.520; 1296.667;  139.278; 1191.056
217.119; 1253.667;  158.278; 1165.056
217.718; 1184.667;  153.278; 1101.056
218.317; 1285.667;  173.278; 1199.056
218.916; 1444.667;  183.278; 1389.056
219.514; 1431.667;  200.278; 1325.056
220.113; 1688.667;  192.278; 1596.056
220.712; 1229.667;  175.278; 1162.056
221.311; 1654.667;  215.278; 1563.056
221.909; 1263.667;  168.278; 1162.056
222.508; 1503.667;  203.278; 1402.056
223.107; 1313.667;  175.278; 1219.056
223.705; 1360.667;  150.278; 1318.056
224.304; 1414.667;  162.278; 1373.056
224.903; 1205.667;  167.278; 1122.056
225.501; 1355.667;  208.278; 1276.056
226.100; 1256.667;  114.278; 1171.056
226.698; 1109.667;  132.278;  996.056
227.296; 1318.667;  150.278; 1212.056
227.895; 1334.667;  174.278; 1294.056
228.493; 1315.667;  165.278; 1153.056
229.092; 1143.667;  114.278; 1053.056
229.690; 1352.667;  143.278; 1237.056
230.288; 1532.667;  226.278; 1479.056
230.887; 1364.667;  148.278; 1276.056
231.485; 1127.667;  163.278; 1114.056
232.083; 1199.667;  168.278; 1082.056
232.681; 1401.667;  204.278; 1282.056
233.279; 3227.667;  504.278; 3029.056
233.877; 1223.667;  153.278; 1057.056
234.476; 1191.667;  118.278; 1132.056
235.074; 1465.667;  185.278; 1380.056
235.672; 1152.667;  149.278; 1082.056
236.270; 1305.667;  149.278; 1246.056
236.868; 1173.667;  139.278; 1046.056
237.466; 1291.667;  176.278; 1189.056
238.064; 1202.667;  113.278; 1171.056
238.661; 1293.667;  175.278; 1228.056
239.259; 1288.667;  173.278; 1164.056
239.857; 1238.667;  154.278; 1160.056
240.455; 1127.667;  135.278; 1038.056
241.053; 1196.667;  141.278; 1123.056
241.651; 1160.667;  132.278; 1111.056
242.248; 1399.667;  197.278; 1331.056
242.846; 1144.667;  136.278; 1061.056
243.444; 1221.667;  142.278; 1124.056
244.041; 1309.667;  103.278; 1171.056
244.639; 1277.667;  181.278; 1209.056
245.236; 1153.667;  119.278; 1107.056
245.834; 1031.667;  137.278;  992.056
246.432; 1234.667;  166.278; 1157.056
247.029; 1358.667;  180.278; 1297.056
247.626; 1368.667;  163.278; 1244.056
248.224; 1388.667;  200.278; 1267.056
248.821; 1217.667;  117.278; 1137.056
249.419; 1232.667;  162.278; 1204.056
250.016; 1170.667;  151.278; 1032.056
250.613; 1285.667;  168.278; 1161.056
251.211; 1437.667;  165.278; 1319.056
251.808; 1222.667;  145.278; 1132.056
252.405; 1345.667;  164.278; 1275.056
253.002; 1390.667;  174.278; 1389.056
253.600; 1408.667;  169.278; 1268.056
254.197; 1286.667;  161.278; 1197.056
254.794; 1312.667;  171.278; 1201.056
255.391; 1258.667;  175.278; 1199.056
255.988; 1194.667;  116.278; 1096.056
256.585; 1223.667;  163.278; 1157.056
257.182; 1336.667;  159.278; 1234.056
257.779; 1155.667;  152.278; 1066.056
258.376; 1270.667;  164.278; 1173.056
258.973; 1208.667;  175.278; 1145.056
259.570; 1293.667;   94.278; 1234.056
260.167; 1377.667;  162.278; 1336.056
260.763; 1221.667;  159.278; 1178.056
261.360; 1356.667;  159.278; 1240.056
261.957; 1701.667;  196.278; 1590.056
262.554; 1486.667;  200.278; 1490.056
263.150; 1460.667;  146.278; 1377.056
263.747; 1330.667;  156.278; 1294.056
264.344; 1267.667;  158.278; 1165.056
264.940; 1270.667;  163.278; 1186.056
265.537; 1326.667;  177.278; 1192.056
266.134; 1481.667;  194.278; 1380.056
266.730; 1276.667;  157.278; 1214.056
267.327; 1409.667;  176.278; 1320.056
267.923; 1276.667;  164.278; 1210.056
268.519; 1260.667;  179.278; 1121.056
269.116; 1318.667;  168.278; 1235.056
269.712; 1125.667;  113.278; 1038.056
270.309; 1164.667;  109.278; 1059.056
270.905; 1343.667;  177.278; 1272.056
271.501; 1327.667;  194.278; 1254.056
272.098; 1350.667;  165.278; 1233.056
272.694; 1468.667;  219.278; 1366.056
273.290; 1281.667;  147.278; 1163.056
273.886; 1311.667;  117.278; 1245.056
274.482; 1351.667;  156.278; 1168.056
275.078; 1466.667;  211.278; 1404.056
275.675; 1297.667;  174.278; 1206.056
276.271; 1198.667;  140.278; 1079.056
276.867; 1177.667;  165.278; 1086.056
277.463; 1263.667;  167.278; 1289.056
278.059; 1380.667;  148.278; 1281.056
278.655; 1174.667;  172.278; 1112.056
279.250; 1296.667;  165.278; 1187.056
279.846; 1092.667;  143.278;  982.056
280.442; 1129.667;  140.278; 1046.056
281.038; 1359.667;  183.278; 1384.056
281.634; 1206.667;  131.278; 1149.056
282.230; 1245.667;  181.278; 1181.056
282.825; 1251.667;  160.278; 1158.056
283.421; 1034.667;  127.278; 1004.056
284.017; 1147.667;   92.278; 1017.056
284.612; 1108.667;  134.278; 1150.056
285.208; 1208.667;  117.278; 1132.056
285.804; 1365.667;  191.278; 1264.056
286.399; 1172.667;  144.278; 1063.056
286.995; 1143.667;  145.278; 1098.056
287.590; 1349.667;  178.278; 1212.056
288.186; 1225.667;  105.278; 1157.056
288.781; 1316.667;  166.278; 1261.056
289.376; 1083.667;  137.278; 1101.056
289.972; 1189.667;  155.278; 1148.056
290.567; 1216.667;  160.278; 1125.056
291.162; 1360.667;  177.278; 1304.056
291.758; 1197.667;  148.278; 1184.056
292.353; 1141.667;  111.278; 1100.056
292.948; 1186.667;  178.278; 1125.056
293.543; 1317.667;  209.278; 1276.056
294.139; 1273.667;  191.278; 1225.056
294.734; 1172.667;  153.278; 1153.056
295.329; 1350.667;  188.278; 1313.056
295.924; 1194.667;  134.278; 1184.056
296.519; 1106.667;  145.278; 1099.056
297.114; 1264.667;  152.278; 1282.056
297.709; 1369.667;  183.278; 1326.056
298.304; 1216.667;  147.278; 1138.056
298.899; 1140.667;  126.278; 1167.056
299.494; 1254.667;  139.278; 1195.056
300.089; 1433.667;  197.278; 1356.056
300.683; 1174.667;  152.278; 1158.056
301.278; 1239.667;  188.278; 1208.056
301.873; 1409.667;  182.278; 1361.056
302.468; 1480.667;  190.278; 1459.056
303.062; 1170.667;  147.278; 1203.056
303.657; 1278.667;  107.278; 1250.056
304.252; 1417.667;  181.278; 1351.056
304.846; 1270.667;  126.278; 1230.056
305.441; 1531.667;  198.278; 1475.056
306.036; 1384.667;  202.278; 1375.056
306.630; 1374.667;  152.278; 1338.056
307.225; 1402.667;  213.278; 1359.056
307.819; 1316.667;  134.278; 1282.056
308.413; 1177.667;  152.278; 1155.056
309.008; 1053.667;  132.278; 1011.056
309.602; 1352.667;  181.278; 1364.056
310.197; 1480.667;  189.278; 1445.056
310.791; 1221.667;  132.278; 1180.056
311.385; 1056.667;  127.278; 1103.056
311.979; 1118.667;  155.278; 1119.056
312.574; 1181.667;  161.278; 1103.056
313.168; 1275.667;  163.278; 1156.056
313.762; 1060.667;  111.278; 1071.056
314.356; 1287.667;  190.278; 1301.056
314.950; 1518.667;  190.278; 1519.056
315.544; 1384.667;  179.278; 1303.056
316.138; 1367.667;  182.278; 1321.056
316.732; 1297.667;  180.278; 1245.056
317.326; 1163.667;  138.278; 1194.056
317.920; 1070.667;  160.278; 1123.056
318.514; 1295.667;  168.278; 1287.056
319.108; 1187.667;  102.278; 1150.056
319.702; 1338.667;  191.278; 1306.056
320.296; 1287.667;  158.278; 1226.056
320.890; 1270.667;  157.278; 1263.056
321.483; 1265.667;  157.278; 1255.056
322.077; 1113.667;  140.278; 1062.056
322.671; 1246.667;  162.278; 1192.056
323.264; 1071.667;  148.278; 1020.056
323.858; 1122.667;  113.278; 1037.056
324.452; 1234.667;  127.278; 1209.056
325.045; 1128.667;  155.278; 1096.056
325.639; 1110.667;  148.278; 1125.056
326.232; 1169.667;  157.278; 1117.056
326.826; 1516.667;  209.278; 1466.056
327.419; 1124.667;  106.278; 1032.056
328.013; 1123.667;  128.278; 1161.056
328.606; 1166.667;  165.278; 1182.056
329.200; 1282.667;  181.278; 1270.056
329.793; 1145.667;  147.278; 1060.056
330.386; 1309.667;  180.278; 1355.056
330.979; 1459.667;  207.278; 1396.056
331.573; 1356.667;  173.278; 1376.056
332.166; 1258.667;  181.278; 1214.056
332.759; 1254.667;  166.278; 1239.056
333.352; 1298.667;  147.278; 1251.056
333.945; 1279.667;  170.278; 1295.056
334.538; 1217.667;  159.278; 1147.056
335.131; 1124.667;  147.278; 1130.056
335.724; 1422.667;  174.278; 1353.056
336.317; 1268.667;  172.278; 1241.056
336.910; 1377.667;  204.278; 1329.056
337.503; 1294.667;  140.278; 1271.056
338.096; 1413.667;  210.278; 1346.056
338.689; 1218.667;  132.278; 1170.056
339.282; 1125.667;  167.278; 1126.056
339.875; 1266.667;  171.278; 1224.056
340.468; 1320.667;  187.278; 1267.056
341.060; 1228.667;  160.278; 1186.056
341.653; 1324.667;  153.278; 1274.056
342.246; 1236.667;  150.278; 1280.056
342.838; 1208.667;  182.278; 1155.056
343.431; 1345.667;  188.278; 1259.056
344.024; 1303.667;  191.278; 1304.056
344.616; 1179.667;  167.278; 1154.056
345.209; 1373.667;  192.278; 1279.056
345.801; 1003.667;  128.278; 1029.056
346.394; 1308.667;  163.278; 1321.056
346.986; 1271.667;  158.278; 1199.056
347.578; 1189.667;  152.278; 1090.056
348.171; 1252.667;  161.278; 1203.056
348.763; 1187.667;  153.278; 1100.056
349.355; 1155.667;  134.278; 1176.056
349.948; 1659.667;  210.278; 1653.056
350.540; 1426.667;  187.278; 1400.056
351.132; 1351.667;  195.278; 1297.056
351.724; 1181.667;  133.278; 1161.056
352.316; 1201.667;  166.278; 1171.056
352.909; 1365.667;  136.278; 1360.056
353.501; 1212.667;  134.278; 1243.056
354.093; 1295.667;  154.278; 1290.056
354.685; 1312.667;  167.278; 1252.056
355.277; 1146.667;  132.278; 1101.056
355.869; 1370.667;  191.278; 1303.056
356.461; 1323.667;  140.278; 1287.056
357.052; 1145.667;  164.278; 1142.056
357.644; 1393.667;  184.278; 1351.056
358.236; 1182.667;  149.278; 1138.056
358.828; 1114.667;  134.278; 1059.056
359.420; 1381.667;  209.278; 1309.056
360.011; 1528.667;  187.278; 1474.056
360.603; 1664.667;  249.278; 1681.056
361.195; 1314.667;  195.278; 1288.056
361.786; 1366.667;  190.278; 1313.056
362.378; 1116.667;  135.278; 1116.056
362.970; 1117.667;  130.278; 1044.056
363.561; 1099.667;  107.278; 1062.056
364.153; 1174.667;  140.278; 1155.056
364.744; 1260.667;  166.278; 1150.056
365.336; 1185.667;  132.278; 1169.056
365.927; 1148.667;  150.278; 1167.056
366.518; 1347.667;  178.278; 1256.056
367.110; 1416.667;  181.278; 1415.056
367.701; 1091.667;  150.278; 1078.056
368.292; 1424.667;  187.278; 1356.056
368.884; 1199.667;  152.278; 1143.056
369.475; 1465.667;  210.278; 1441.056
370.066; 1205.667;  173.278; 1209.056
370.657; 1437.667;  158.278; 1374.056
371.248; 1131.667;  168.278; 1063.056
371.840; 1241.667;  147.278; 1211.056
372.431; 1194.667;  160.278; 1168.056
373.022; 1152.667;  163.278; 1094.056
373.613; 1352.667;  182.278; 1332.056
374.204; 1337.667;  159.278; 1299.056
374.795; 1132.667;  124.278; 1089.056
375.385; 1382.667;  195.278; 1371.056
375.976; 1409.667;  180.278; 1362.056
376.567; 1215.667;  188.278; 1221.056
377.158; 1340.667;  190.278; 1245.056
377.749; 1207.667;  153.278; 1208.056
378.339; 1208.667;  186.278; 1217.056
378.930; 1228.667;  171.278; 1198.056
379.521; 1477.667;  217.278; 1412.056
380.112; 1319.667;  184.278; 1304.056
380.702; 1373.667;  141.278; 1295.056
381.293; 1197.667;  124.278; 1218.056
381.883; 1365.667;  176.278; 1330.056
382.474; 1448.667;  177.278; 1405.056
383.064; 1227.667;  163.278; 1159.056
383.655; 1420.667;  191.278; 1387.056
384.245; 1336.667;  163.278; 1288.056
384.836; 1414.667;  183.278; 1384.056
385.426; 1245.667;  159.278; 1248.056
386.016; 1197.667;  138.278; 1203.056
386.607; 1399.667;  184.278; 1345.056
387.197; 1265.667;  166.278; 1233.056
387.787; 1186.667;  158.278; 1077.056
388.377; 1152.667;  100.278; 1113.056
388.967; 1214.667;  178.278; 1191.056
389.558; 1205.667;  105.278; 1178.056
390.148; 1316.667;  188.278; 1264.056
390.738; 1200.667;  172.278; 1172.056
391.328; 1157.667;  131.278; 1102.056
391.918; 1314.667;  144.278; 1309.056
392.508; 1368.667;  165.278; 1334.056
393.098; 1065.667;  131.278; 1095.056
393.688; 1239.667;  183.278; 1203.056
394.277; 1126.667;  116.278; 1100.056
394.867; 1292.667;  165.278; 1216.056
395.457; 1251.667;  113.278; 1236.056
396.047; 1460.667;  182.278; 1419.056
396.637; 1415.667;  174.278; 1403.056
397.226; 1342.667;  179.278; 1271.056
397.816; 1303.667;  145.278; 1269.056
398.406; 1255.667;  149.278; 1165.056
398.995; 1339.667;  156.278; 1297.056
399.585; 1275.667;  178.278; 1259.056
400.174; 1194.667;  168.278; 1223.056
400.764; 1273.667;  181.278; 1244.056
401.353; 1181.667;  153.278; 1130.056
401.943; 1201.667;  161.278; 1144.056
402.532; 1269.667;  106.278; 1201.056
403.122; 1182.667;  157.278; 1127.056
403.711; 1144.667;  163.278; 1129.056
404.300; 1274.667;  171.278; 1226.056
404.889; 1132.667;  125.278; 1103.056
405.479; 1210.667;  140.278; 1168.056
406.068; 1274.667;  153.278; 1235.056
406.657; 1511.667;  214.278; 1492.056
407.246; 1252.667;  192.278; 1192.056
407.835; 1243.667;  163.278; 1205.056
408.424; 1346.667;  167.278; 1353.056
409.014; 1320.667;  159.278; 1221.056
409.603; 1309.667;  162.278; 1225.056
410.192; 1291.667;  159.278; 1245.056
410.781; 1273.667;  170.278; 1260.056
411.369; 1054.667;   90.278;  996.056
411.958; 1047.667;  134.278;  964.056
412.547; 1166.667;  142.278; 1104.056
413.136; 1259.667;  140.278; 1076.056
413.725; 1276.667;  168.278; 1155.056
414.314; 1408.667;  158.278; 1343.056
414.902; 1353.667;  160.278; 1157.056
415.491; 1314.667;   98.278; 1175.056
416.080; 1385.667;  185.278; 1243.056
416.668; 1243.667;   91.278; 1079.056
417.257; 1417.667;  168.278; 1241.056
417.845; 1288.667;  105.278; 1146.056
418.434; 1360.667;  162.278; 1099.056
419.022; 1530.667;  171.278; 1351.056
419.611; 1545.667;  166.278; 1269.056
420.199; 1536.667;  133.278; 1178.056
420.788; 1535.667;  111.278; 1212.056
421.376; 1619.667;  172.278; 1363.056
421.964; 1442.667;   98.278; 1063.056
422.553; 1748.667;  196.278; 1382.056
423.141; 1587.667;  161.278; 1138.056
423.729; 1671.667;  148.278; 1167.056
424.317; 1729.667;  133.278; 1255.056
424.905; 1694.667;  188.278; 1195.056
425.494; 1669.667;  145.278; 1102.056
426.082; 1735.667;  155.278; 1094.056
426.670; 1973.667;  171.278; 1225.056
427.258; 2128.667;  157.278; 1301.056
427.846; 2100.667;  177.278; 1279.056
428.434; 2168.667;  151.278; 1226.056
429.022; 2143.667;  146.278; 1142.056
429.610; 2296.667;  174.278; 1180.056
430.197; 2481.667;  187.278; 1300.056
430.785; 2579.667;  153.278; 1299.056
431.373; 2549.667;  156.278; 1174.056
431.961; 2693.667;  166.278; 1324.056
432.549; 2843.667;  178.278; 1281.056
433.136; 2874.667;  178.278; 1219.056
433.724; 3127.667;  145.278; 1301.056
434.311; 3232.667;  139.278; 1240.056
434.899; 3468.667;  162.278; 1331.056
435.487; 3345.667;  150.278; 1112.056
436.074; 3922.667;  196.278; 1467.056
436.662; 3971.667;  215.278; 1358.056
437.249; 3995.667;  172.278; 1211.056
437.837; 4039.667;  116.278; 1051.056
438.424; 4336.667;  156.278; 1239.056
439.011; 4528.667;  171.278; 1211.056
439.599; 4697.667;  166.278; 1120.056
440.186; 5007.667;  161.278; 1169.056
440.773; 5333.667;  131.278; 1251.056
441.360; 5463.667;  129.278; 1137.056
441.948; 5913.667;  170.278; 1337.056
442.535; 6066.667;  154.278; 1245.056
443.122; 6431.667;  165.278; 1252.056
443.709; 6794.667;  182.278; 1259.056
444.296; 7035.667;  143.278; 1204.056
444.883; 7474.667;  172.278; 1310.056
445.470; 7650.667;  130.278; 1216.056
446.057; 8061.667;  163.278; 1179.056
446.644; 8344.667;  146.278; 1219.056
447.231; 8953.667;  200.278; 1423.056
447.818; 9336.667;  177.278; 1410.056
448.404; 9496.667;  130.278; 1227.056
448.991;10368.667;  190.278; 1757.056
449.578;10093.667;  140.278; 1267.056
450.165;10288.667;  155.278; 1277.056
450.751;10519.667;  101.278; 1270.056
451.338;10865.667;  178.278; 1411.056
451.925;10833.667;  146.278; 1182.056
452.511;10976.667;  167.278; 1281.056
453.098;10977.667;  176.278; 1256.056
453.684;11383.667;  209.278; 1658.056
454.271;11096.667;  190.278; 1431.056
454.857;10812.667;  178.278; 1274.056
455.443;10621.667;  120.278; 1168.056
456.030;10442.667;   93.278; 1199.056
456.616; 9989.667;  125.278; 1028.056
457.202; 9823.667;  156.278; 1147.056
457.789; 9479.667;  132.278; 1156.056
458.375; 9338.667;  161.278; 1161.056
458.961; 8996.667;  145.278; 1185.056
459.547; 8776.667;  167.278; 1239.056
460.133; 8357.667;  151.278; 1141.056
460.720; 8151.667;  163.278; 1263.056
461.306; 8074.667;  165.278; 1322.056
461.892; 8295.667;  247.278; 1908.056
462.478; 7503.667;  164.278; 1363.056
463.064; 7234.667;  196.278; 1324.056
463.650; 7017.667;  190.278; 1461.056
464.235; 6722.667;  163.278; 1318.056
464.821; 6459.667;  160.278; 1209.056
465.407; 6113.667;  123.278; 1085.056
465.993; 6106.667;  131.278; 1249.056
466.579; 6112.667;  174.278; 1342.056
467.164; 5634.667;  156.278; 1224.056
467.750; 5539.667;  175.278; 1236.056
468.336; 5280.667;  148.278; 1096.056
468.921; 5004.667;  146.278; 1098.056
469.507; 5287.667;  158.278; 1368.056
470.092; 5424.667;  201.278; 1605.056
470.678; 4683.667;  124.278; 1161.056
471.263; 4581.667;  145.278; 1211.056
471.849; 4589.667;  152.278; 1352.056
472.434; 4309.667;  162.278; 1213.056
473.020; 4029.667;   79.278; 1118.056
473.605; 3905.667;  155.278; 1128.056
474.190; 3884.667;  147.278; 1211.056
474.776; 3708.667;  169.278; 1195.056
475.361; 3634.667;  150.278; 1246.056
475.946; 3718.667;  176.278; 1364.056
476.531; 3508.667;  128.278; 1271.056
477.116; 3379.667;  162.278; 1255.056
477.701; 3447.667;  177.278; 1371.056
478.287; 3162.667;  144.278; 1146.056
478.872; 3094.667;  169.278; 1257.056
479.457; 3145.667;  199.278; 1273.056
480.042; 2921.667;  134.278; 1139.056
480.626; 2971.667;  205.278; 1255.056
481.211; 3042.667;  175.278; 1372.056
481.796; 2880.667;  155.278; 1216.056
482.381; 3478.667;  280.278; 1962.056
482.966; 2986.667;  216.278; 1467.056
483.551; 2789.667;  143.278; 1297.056
484.135; 2692.667;  182.278; 1273.056
484.720; 2483.667;  144.278; 1139.056
485.305; 2488.667;  167.278; 1126.056
485.889; 2730.667;  199.278; 1403.056
486.474; 2314.667;  146.278; 1058.056
487.058; 2415.667;   96.278; 1192.056
487.643; 2619.667;  211.278; 1371.056
488.227; 2329.667;  148.278; 1192.056
488.812; 2288.667;  102.278; 1157.056
489.396; 2486.667;  188.278; 1362.056
489.981; 2979.667;  217.278; 1835.056
490.565; 2295.667;  112.278; 1209.056
491.149; 2124.667;  173.278; 1091.056
491.733; 2295.667;  162.278; 1224.056
492.318; 2168.667;  135.278; 1120.056
492.902; 2129.667;  163.278; 1123.056
493.486; 2067.667;  133.278; 1040.056
494.070; 2069.667;   97.278; 1131.056
494.654; 2243.667;  176.278; 1289.056
495.238; 2091.667;  164.278; 1127.056
495.822; 2166.667;  186.278; 1241.056
496.406; 2127.667;  153.278; 1291.056
496.990; 2048.667;  135.278; 1117.056
497.574; 2167.667;  125.278; 1266.056
498.158; 2043.667;  129.278; 1145.056
498.742; 2076.667;  148.278; 1156.056
499.326; 1903.667;  143.278; 1071.056
499.909; 2005.667;  166.278; 1176.056
500.493; 2139.667;  133.278; 1238.056
501.077; 2089.667;  131.278; 1252.056
501.661; 2133.667;  159.278; 1247.056
502.244; 2075.667;  174.278; 1207.056
502.828; 2036.667;  168.278; 1169.056
503.411; 2033.667;  135.278; 1206.056
503.995; 2444.667;  228.278; 1607.056
504.578; 2186.667;  158.278; 1401.056
505.162; 1941.667;  162.278; 1127.056
505.745; 2051.667;  123.278; 1250.056
506.329; 2034.667;  174.278; 1222.056
506.912; 2191.667;  199.278; 1445.056
507.495; 2112.667;  154.278; 1276.056
508.079; 2122.667;  160.278; 1309.056
508.662; 2073.667;  162.278; 1280.056
509.245; 1918.667;  140.278; 1196.056
509.828; 2065.667;  170.278; 1272.056
510.411; 1799.667;  122.278; 1089.056
510.994; 1862.667;  125.278; 1120.056
511.578; 2306.667;  182.278; 1499.056
512.161; 1874.667;  139.278; 1035.056
512.744; 2164.667;  170.278; 1363.056
513.327; 1909.667;  148.278; 1148.056
513.909; 2044.667;  169.278; 1317.056
514.492; 2006.667;  148.278; 1257.056
515.075; 2010.667;  170.278; 1263.056
515.658; 1951.667;  150.278; 1143.056
516.241; 2006.667;  165.278; 1251.056
516.824; 1925.667;  123.278; 1174.056
517.406; 1948.667;  135.278; 1266.056
517.989; 1946.667;  168.278; 1219.056
518.572; 2105.667;  170.278; 1315.056
519.154; 2186.667;  217.278; 1421.056
519.737; 2032.667;  132.278; 1268.056
520.319; 1893.667;  164.278; 1196.056
520.902; 2086.667;  183.278; 1405.056
521.484; 1920.667;  180.278; 1199.056
522.067; 2028.667;  143.278; 1274.056
522.649; 1981.667;  155.278; 1163.056
523.231; 1948.667;  125.278; 1223.056
523.814; 2110.667;  212.278; 1366.056
524.396; 2121.667;  181.278; 1437.056
524.978; 2059.667;  172.278; 1264.056
525.560; 1952.667;  118.278; 1173.056
526.143; 2021.667;  175.278; 1249.056
526.725; 2060.667;  191.278; 1328.056
527.307; 2052.667;  175.278; 1276.056
527.889; 2025.667;  179.278; 1289.056
528.471; 1841.667;  146.278; 1048.056
529.053; 2026.667;  108.278; 1256.056
529.635; 2025.667;  180.278; 1247.056
530.217; 2121.667;  168.278; 1347.056
530.799; 2186.667;  188.278; 1398.056
531.381; 2050.667;  192.278; 1295.056
531.962; 1944.667;  159.278; 1205.056
532.544; 2148.667;  165.278; 1333.056
533.126; 2070.667;  171.278; 1277.056
533.708; 2054.667;  171.278; 1306.056
534.289; 2194.667;  177.278; 1377.056
534.871; 2075.667;  162.278; 1284.056
535.453; 2145.667;  185.278; 1368.056
536.034; 2158.667;  156.278; 1402.056
536.616; 1928.667;  162.278; 1110.056
537.197; 2030.667;  167.278; 1296.056
537.779; 2173.667;  164.278; 1409.056
538.360; 2128.667;  179.278; 1369.056
538.941; 1986.667;  151.278; 1198.056
539.523; 1973.667;  118.278; 1158.056
540.104; 2398.667;  228.278; 1555.056
540.685; 1962.667;  145.278; 1130.056
541.267; 1939.667;  156.278; 1162.056
541.848; 2052.667;  158.278; 1250.056
542.429; 2322.667;  174.278; 1456.056
543.010; 2026.667;  119.278; 1173.056
543.591; 2214.667;  189.278; 1376.056
544.172; 2237.667;  153.278; 1414.056
544.753; 2323.667;  190.278; 1484.056
545.334; 7100.667;  172.278; 6117.056
545.915; 2054.667;  150.278; 1216.056
546.496; 2144.667;  153.278; 1325.056
547.077; 2076.667;  197.278; 1218.056
547.658; 2179.667;  200.278; 1355.056
548.239; 2261.667;  183.278; 1392.056
548.819; 2354.667;  196.278; 1521.056
549.400; 2001.667;  169.278; 1208.056
549.981; 2237.667;  167.278; 1410.056
550.561; 1977.667;  133.278; 1133.056
551.142; 2050.667;  156.278; 1165.056
551.723; 2210.667;  181.278; 1376.056
552.303; 1998.667;  155.278; 1193.056
552.884; 2176.667;  194.278; 1320.056
553.464; 2290.667;  175.278; 1462.056
554.045; 2340.667;  223.278; 1494.056
554.625; 1980.667;  151.278; 1171.056
555.205; 2090.667;  174.278; 1264.056
555.786; 2047.667;  142.278; 1305.056
556.366; 2072.667;  146.278; 1212.056
556.946; 2321.667;  142.278; 1456.056
557.526; 2263.667;  200.278; 1335.056
558.107; 2224.667;  156.278; 1383.056
558.687; 2433.667;  210.278; 1508.056
559.267; 2161.667;  154.278; 1283.056
559.847; 2242.667;  172.278; 1361.056
560.427; 2303.667;  107.278; 1401.056
561.007; 2323.667;  183.278; 1411.056
561.587; 2100.667;  140.278; 1217.056
562.167; 2332.667;  220.278; 1409.056
562.747; 2270.667;  169.278; 1404.056
563.327; 2105.667;  148.278; 1222.056
563.906; 2153.667;   72.278; 1191.056
564.486; 2333.667;  203.278; 1344.056
565.066; 2097.667;  119.278; 1138.056
565.646; 2248.667;  167.278; 1259.056
566.225; 2074.667;  131.278; 1136.056
566.805; 2312.667;  193.278; 1365.056
567.384; 2254.667;  128.278; 1301.056
567.964; 2402.667;  184.278; 1384.056
568.544; 2197.667;  172.278; 1197.056
569.123; 2262.667;  128.278; 1233.056
569.702; 2177.667;  133.278; 1238.056
570.282; 2294.667;  135.278; 1348.056
570.861; 2290.667;  127.278; 1229.056
571.441; 2366.667;   97.278; 1274.056
572.020; 2376.667;  159.278; 1290.056
572.599; 2368.667;  181.278; 1280.056
573.178; 2624.667;  184.278; 1511.056
573.758; 2240.667;  168.278; 1246.056
574.337; 2544.667;  177.278; 1514.056
574.916; 2225.667;  150.278; 1074.056
575.495; 2367.667;  147.278; 1209.056
576.074; 2355.667;  165.278; 1205.056
576.653; 2943.667;  245.278; 1764.056
577.232; 2533.667;  163.278; 1374.056
577.811; 2522.667;  110.278; 1266.056
578.390; 2427.667;  110.278; 1158.056
578.969; 2425.667;  141.278; 1046.056
579.547; 2591.667;  147.278; 1297.056
580.126; 2708.667;  170.278; 1360.056
580.705; 2626.667;  154.278; 1266.056
581.284; 2851.667;  152.278; 1442.056
581.862; 2742.667;  161.278; 1250.056
582.441; 2801.667;  164.278; 1212.056
583.019; 2909.667;  162.278; 1167.056
583.598; 2970.667;  178.278; 1374.056
584.177; 2961.667;  157.278; 1378.056
584.755; 2972.667;  149.278; 1212.056
585.333; 3076.667;  199.278; 1271.056
585.912; 3156.667;  152.278; 1291.056
586.490; 3418.667;  190.278; 1378.056
587.069; 3218.667;  161.278; 1196.056
587.647; 3263.667;  131.278; 1159.056
588.225; 3385.667;  142.278; 1197.056
588.803; 3425.667;  149.278; 1137.056
589.381; 3664.667;  162.278; 1252.056
589.960; 3848.667;  169.278; 1353.056
590.538; 3755.667;  122.278; 1153.056
591.116; 3850.667;  158.278; 1144.056
591.694; 4238.667;  175.278; 1386.056
592.272; 4227.667;  168.278; 1273.056
592.850; 4437.667;  161.278; 1412.056
593.428; 4577.667;  174.278; 1370.056
594.006; 4486.667;  134.278; 1157.056
594.583; 5028.667;  194.278; 1500.056
595.161; 5329.667;  199.278; 1652.056
595.739; 5284.667;  191.278; 1443.056
596.317; 5330.667;  178.278; 1278.056
596.894; 5518.667;  188.278; 1384.056
597.472; 5799.667;  174.278; 1381.056
598.050; 5876.667;  144.278; 1335.056
598.627; 5975.667;  164.278; 1231.056
599.205; 6216.667;  170.278; 1272.056
599.782; 6164.667;  135.278; 1005.056
600.360; 6605.667;  170.278; 1278.056
600.937; 6821.667;  177.278; 1313.056
601.515; 7005.667;  153.278; 1307.056
602.092; 7241.667;  124.278; 1281.056
602.669; 7379.667;  162.278; 1170.056
603.247; 7572.667;  134.278; 1066.056
603.824; 7992.667;  149.278; 1190.056
604.401; 8176.667;  123.278; 1305.056
604.978; 8462.667;  151.278; 1194.056
605.555; 8813.667;  162.278; 1410.056
606.132; 8949.667;  176.278; 1186.056
606.709; 9399.667;  175.278; 1310.056
607.286; 9743.667;  174.278; 1322.056
607.863; 9894.667;  132.278; 1280.056
608.440;10120.667;  156.278; 1240.056
609.017;10420.667;   93.278; 1220.056
609.594;10741.667;  198.278; 1302.056
610.171;10777.667;  156.278; 1176.056
610.748;11116.667;  155.278; 1135.056
611.324;11419.667;  177.278; 1213.056
611.901;11833.667;  181.278; 1291.056
612.478;18998.667; 1314.278; 8504.056
613.054;12252.667;  187.278; 1279.056
613.631;12159.667;   94.278; 1099.056
614.208;12615.667;  167.278; 1216.056
614.784;12846.667;  183.278; 1317.056
615.361;13068.667;  154.278; 1277.056
615.937;13515.667;  178.278; 1395.056
616.513;13863.667;  164.278; 1245.056
617.090;14289.667;  204.278; 1385.056
617.666;14384.667;  164.278; 1282.056
618.242;14699.667;  102.278; 1206.056
618.819;15091.667;  170.278; 1465.056
619.395;15411.667;  165.278; 1426.056
619.971;15520.667;  189.278; 1342.056
620.547;16245.667;  129.278; 1076.056
621.123;17309.667;  198.278; 1368.056
621.699;17905.667;  190.278; 1452.056
622.275;18185.667;  119.278; 1300.056
622.851;18771.667;  173.278; 1298.056
623.427;19282.667;  175.278; 1325.056
624.003;19528.667;  166.278; 1365.056
624.579;20194.667;  148.278; 1281.056
625.155;20596.667;  208.278; 1477.056
625.731;21061.667;  155.278; 1268.056
626.306;21348.667;  154.278; 1150.056
626.882;22063.667;  224.278; 1770.056
627.458;21768.667;  157.278; 1092.056
628.033;22769.667;  181.278; 1404.056
628.609;22978.667;  168.278; 1305.056
629.185;23659.667;  154.278; 1318.056
629.760;23727.667;  191.278; 1354.056
630.336;24217.667;  143.278; 1131.056
630.911;24554.667;  167.278; 1217.056
631.486;25068.667;  179.278; 1390.056
632.062;25237.667;  156.278; 1218.056
632.637;25625.667;  138.278; 1238.056
633.212;25944.667;  150.278; 1183.056
633.788;26512.667;  166.278; 1216.056
634.363;27015.667;  174.278; 1316.056
634.938;27098.667;  151.278; 1366.056
635.513;27676.667;  198.278; 1444.056
636.088;27933.667;  156.278; 1551.056
636.663;28183.667;  196.278; 1355.056
637.238;28223.667;  156.278; 1161.056
637.813;28472.667;  154.278; 1054.056
638.388;28927.667;  152.278; 1267.056
638.963;29068.667;  131.278; 1017.056
639.538;29301.667;   89.278; 1029.056
640.113;29767.667;  179.278; 1394.056
640.688;30131.667;  214.278; 1420.056
641.262;30163.667;  169.278; 1257.056
641.837;30517.667;  146.278; 1156.056
642.412;30560.667;  171.278; 1224.056
642.986;30561.667;  150.278; 1280.056
643.561;30863.667;  128.278; 1141.056
644.136;30941.667;  173.278; 1250.056
644.710;31122.667;  146.278; 1159.056
645.285;31325.667;  160.278; 1173.056
645.859;31610.667;  172.278; 1287.056
646.433;31647.667;  131.278; 1216.056
647.008;31656.667;  153.278; 1128.056
647.582;31972.667;  140.278; 1263.056
648.156;32006.667;  161.278; 1066.056
648.731;32036.667;  167.278; 1089.056
649.305;31863.667;  158.278; 1207.056
649.879;32333.667;  151.278; 1351.056
650.453;32555.667;  251.278; 1359.056
651.027;32354.667;  185.278; 1206.056
651.601;32649.667;  154.278; 1194.056
652.175;32887.667;  134.278; 1193.056
652.749;33046.667;  150.278; 1191.056
653.323;33305.667;  152.278; 1299.056
653.897;35348.667;  397.278; 3042.056
654.471;33744.667;  140.278; 1296.056
655.045;33537.667;  144.278; 1142.056
655.619;33704.667;  146.278; 1095.056
656.192;33732.667;  123.278; 1099.056
656.766;33475.667;  111.278; 1200.056
657.340;32945.667;  153.278; 1049.056
657.913;32892.667;  165.278; 1242.056
658.487;32733.667;  172.278; 1131.056
659.060;32667.667;  176.278; 1269.056
659.634;32899.667;  180.278; 1223.056
660.207;32804.667;  149.278; 1310.056
660.781;32111.667;  171.278; 1176.056
661.354;31062.667;  143.278; 1183.056
661.927;30409.667;  179.278; 1434.056
662.501;29745.667;  171.278; 1255.056
663.074;29317.667;  157.278; 1088.056
663.647;29003.667;  138.278; 1179.056
664.220;28730.667;  176.278; 1279.056
664.794;28562.667;  144.278; 1224.056
665.367;28606.667;  210.278; 1471.056
665.940;28050.667;  167.278; 1339.056
666.513;27869.667;  142.278; 1253.056
667.086;27532.667;  143.278; 1317.056
667.659;27178.667;  181.278; 1067.056
668.232;27310.667;  138.278; 1339.056
668.804;26958.667;  174.278; 1193.056
669.377;26468.667;  154.278; 1172.056
669.950;26351.667;  198.278; 1376.056
670.523;26170.667;  155.278; 1331.056
671.096;25828.667;  154.278; 1197.056
671.668;25384.667;  160.278; 1126.056
672.241;25465.667;  116.278; 1243.056
672.813;25131.667;  144.278; 1287.056
673.386;24838.667;  170.278; 1163.056
673.959;24527.667;  150.278; 1282.056
674.531;24375.667;  151.278; 1194.056
675.103;23984.667;  165.278; 1185.056
675.676;23713.667;  135.278; 1157.056
676.248;23392.667;  136.278; 1035.056
676.821;23157.667;  166.278; 1210.056
677.393;22929.667;  104.278; 1234.056
677.965;22599.667;  185.278; 1318.056
678.537;22186.667;  186.278; 1290.056
679.109;21609.667;  143.278; 1087.056
679.682;21564.667;  152.278; 1080.056
680.254;21182.667;  171.278; 1166.056
680.826;20517.667;   77.278; 1004.056
681.398;20644.667;  180.278; 1238.056
681.970;20244.667;  138.278; 1181.056
682.542;19807.667;  157.278; 1221.056
683.113;19754.667;  176.278; 1324.056
683.685;19322.667;  117.278; 1115.056
684.257;19141.667;  143.278; 1256.056
684.829;18877.667;  154.278; 1174.056
685.401;18609.667;  159.278; 1100.056
685.972;18316.667;  143.278; 1155.056
686.544;18080.667;  147.278; 1251.056
687.115;17814.667;  162.278; 1295.056
687.687;17592.667;  174.278; 1188.056
688.259;17456.667;  144.278; 1225.056
688.830;17149.667;  170.278; 1195.056
689.401;16719.667;  146.278; 1149.056
689.973;16966.667;  222.278; 1541.056
690.544;16425.667;  168.278; 1267.056
691.116;16329.667;  121.278; 1310.056
691.687;15854.667;  166.278; 1107.056
692.258;15721.667;  156.278; 1288.056
692.829;15406.667;  132.278; 1170.056
693.400;15174.667;  175.278; 1209.056
693.972;15030.667;  145.278; 1168.056
694.543;14568.667;  120.278; 1133.056
695.114;14752.667;  197.278; 1547.056
695.685;14052.667;  117.278; 1072.056
696.256;14004.667;  150.278; 1072.056
696.827;13676.667;  143.278; 1155.056
697.397;13549.667;  163.278; 1144.056
697.968;13381.667;  139.278; 1249.056
698.539;13055.667;  185.278; 1141.056
699.110;13123.667;  144.278; 1247.056
699.681;12685.667;  152.278; 1169.056
700.251;12490.667;  120.278; 1113.056
700.822;12510.667;  170.278; 1308.056
701.392;12129.667;  157.278; 1222.056
701.963;11929.667;  153.278; 1203.056
702.534;11684.667;  151.278; 1070.056
703.104;11510.667;  155.278; 1090.056
703.674;11216.667;  166.278; 1109.056
704.245;11006.667;  125.278; 1104.056
704.815;10882.667;  129.278; 1117.056
705.385;10673.667;  140.278; 1034.056
705.956;10622.667;  172.278; 1104.056
706.526;10393.667;  168.278; 1206.056
707.096;10244.667;  161.278; 1169.056
707.666;10160.667;  147.278; 1212.056
708.236; 9992.667;  169.278; 1226.056
708.807; 9622.667;  159.278; 1019.056
709.377; 9466.667;  135.278; 1058.056
709.947; 9419.667;  143.278; 1126.056
710.516; 9371.667;  184.278; 1231.056
711.086; 9145.667;  115.278; 1076.056
711.656; 9140.667;  194.278; 1241.056
712.226; 9038.667;  190.278; 1242.056
712.796; 8699.667;  132.278; 1210.056
713.366; 8723.667;  203.278; 1317.056
713.935; 8362.667;  160.278; 1209.056
714.505; 8293.667;  140.278; 1172.056
715.075; 8104.667;  152.278; 1092.056
715.644; 7957.667;  127.278; 1050.056
716.214; 7791.667;  158.278; 1088.056
716.783; 7932.667;  171.278; 1300.056
717.353; 7762.667;  175.278; 1217.056
717.922; 7439.667;  147.278; 1049.056
718.492; 7290.667;  164.278; 1066.056
719.061; 7489.667;  188.278; 1281.056
719.630; 7155.667;  168.278; 1245.056
720.199; 6996.667;  174.278; 1202.056
720.769; 6871.667;  164.278; 1182.056
721.338; 6896.667;  159.278; 1256.056
721.907; 6740.667;  129.278; 1184.056
722.476; 6721.667;  187.278; 1274.056
723.045; 6459.667;  126.278; 1066.056
723.614; 6481.667;  177.278; 1284.056
724.183; 6157.667;  116.278; 1077.056
724.752; 5979.667;  131.278; 1035.056
725.321; 6212.667;  134.278; 1172.056
725.890; 5925.667;  104.278; 1062.056
726.459; 5846.667;  159.278; 1045.056
727.027; 6028.667;  185.278; 1328.056
727.596; 5989.667;  182.278; 1463.056
728.165; 5493.667;  114.278; 1073.056
728.733; 5508.667;  131.278; 1130.056
729.302; 5646.667;  162.278; 1210.056
729.871; 5501.667;  165.278; 1145.056
730.439; 5462.667;  184.278; 1275.056
731.008; 5456.667;  174.278; 1288.056
731.576; 5617.667;  198.278; 1646.056
732.144; 5030.667;  118.278; 1174.056
732.713; 5096.667;  171.278; 1250.056
733.281; 5060.667;  177.278; 1253.056
733.849; 4717.667;  170.278; 1083.056
734.418; 4814.667;  162.278; 1132.056
734.986; 4784.667;  146.278; 1190.056
735.554; 4733.667;  132.278; 1108.056
736.122; 4547.667;  113.278; 1054.056
736.690; 4634.667;  154.278; 1265.056
737.258; 4522.667;  172.278; 1219.056
737.826; 4443.667;  150.278; 1118.056
738.394; 4422.667;  141.278; 1301.056
738.962; 4663.667;  213.278; 1532.056
739.530; 4350.667;  174.278; 1206.056
740.098; 4234.667;  199.278; 1163.056
740.665; 4389.667;  200.278; 1506.056
741.233; 4194.667;  171.278; 1352.056
741.801; 4137.667;  145.278; 1223.056
742.369; 4034.667;  170.278; 1198.056
742.936; 3784.667;  118.278;  987.056
743.504; 3744.667;  113.278; 1076.056
744.071; 3830.667;  134.278; 1185.056
744.639; 3514.667;  139.278;  975.056
745.206; 3618.667;   72.278; 1040.056
745.774; 3747.667;  166.278; 1213.056
746.341; 3769.667;  169.278; 1311.056
746.908; 3688.667;  180.278; 1232.056
747.476; 3498.667;  114.278; 1133.056
748.043; 3398.667;  151.278; 1161.056
748.610; 3427.667;  150.278; 1156.056
749.177; 3412.667;  149.278; 1169.056
749.744; 3277.667;  129.278; 1069.056
750.311; 3174.667;  166.278;  982.056
750.878; 3070.667;  146.278; 1034.056
751.445; 3199.667;  108.278; 1125.056
752.012; 3159.667;  129.278; 1138.056
752.579; 3130.667;  155.278; 1180.056
753.146; 3204.667;  176.278; 1208.056
753.713; 3110.667;  172.278; 1124.056
754.280; 3149.667;  175.278; 1214.056
754.847; 3081.667;  183.278; 1282.056
755.413; 3484.667;  188.278; 1681.056
755.980; 2915.667;  161.278; 1157.056
756.546; 3018.667;  177.278; 1217.056
757.113; 2576.667;   48.278;  958.056
757.680; 2608.667;   80.278;  918.056
758.246; 2743.667;  165.278; 1110.056
758.813; 2701.667;  143.278; 1118.056
759.379; 2704.667;  141.278; 1094.056
759.945; 2735.667;  145.278; 1154.056
760.512; 2833.667;  159.278; 1324.056
761.078; 2669.667;  155.278; 1122.056
761.644; 2692.667;  142.278; 1254.056
762.210; 2557.667;  111.278; 1086.056
762.777; 2699.667;  153.278; 1232.056
763.343; 2668.667;  158.278; 1201.056
763.909; 2580.667;  128.278; 1226.056
764.475; 2347.667;  126.278;  982.056
765.041; 2450.667;  160.278; 1216.056
765.607; 2397.667;  105.278; 1127.056
766.173; 2407.667;  136.278; 1184.056
766.738; 2317.667;  157.278; 1088.056
767.304; 2419.667;  122.278; 1188.056
767.870; 2472.667;  173.278; 1275.056
768.436; 2512.667;  187.278; 1293.056
769.002; 2441.667;  127.278; 1249.056
769.567; 2314.667;  189.278; 1221.056
770.133; 2177.667;  148.278; 1045.056
770.698; 2411.667;  201.278; 1317.056
771.264; 2239.667;  150.278; 1102.056
771.829; 2202.667;  156.278; 1174.056
772.395; 2142.667;  133.278; 1134.056
772.960; 2134.667;  177.278; 1120.056
773.526; 2187.667;  171.278; 1230.056
774.091; 2185.667;  182.278; 1238.056
774.656; 2114.667;  161.278; 1072.056
775.221; 2156.667;  175.278; 1240.056
775.787; 1902.667;  133.278; 1045.056
776.352; 1851.667;  110.278;  950.056
776.917; 1982.667;  138.278; 1100.056
777.482; 1848.667;   63.278;  935.056
778.047; 2043.667;  136.278; 1143.056
778.612; 2082.667;  183.278; 1248.056
779.177; 1977.667;  148.278; 1222.056
779.742; 1984.667;  142.278; 1141.056
780.307; 1825.667;  144.278; 1049.056
780.871; 1871.667;  151.278; 1075.056
781.436; 1988.667;  176.278; 1151.056
782.001; 1908.667;  165.278; 1152.056
782.566; 1883.667;  142.278; 1126.056
783.130; 1928.667;  123.278; 1230.056
783.695; 1931.667;  170.278; 1257.056
784.259; 1797.667;  165.278; 1081.056
784.824; 1763.667;  153.278; 1029.056
785.388; 1747.667;  118.278; 1084.056
785.953; 1727.667;  122.278; 1090.056
786.517; 1781.667;  154.278; 1150.056
787.081; 2074.667;  189.278; 1410.056
787.646; 1929.667;  181.278; 1336.056
788.210; 1713.667;  126.278; 1113.056
788.774; 1983.667;  194.278; 1336.056
789.338; 1568.667;  128.278;  990.056
789.903; 1576.667;   71.278; 1088.056
790.467; 1766.667;  175.278; 1199.056
791.031; 1742.667;  160.278; 1166.056
791.595; 1931.667;  202.278; 1351.056
792.159; 1565.667;  155.278; 1048.056
792.723; 1745.667;  194.278; 1275.056
793.286; 1708.667;  150.278; 1199.056
793.850; 1686.667;  151.278; 1136.056
794.414; 1727.667;  176.278; 1247.056
794.978; 1534.667;  140.278; 1039.056
795.542; 1950.667;  218.278; 1483.056
796.105; 1665.667;  150.278; 1159.056
796.669; 1680.667;  178.278; 1217.056
797.232; 1641.667;  175.278; 1221.056
797.796; 1690.667;  157.278; 1211.056
798.359; 1528.667;  162.278; 1113.056
798.923; 1332.667;   82.278;  837.056
799.486; 1559.667;  142.278; 1120.056
800.050; 1600.667;  158.278; 1192.056
800.613; 1426.667;   69.278; 1033.056
801.176; 1527.667;  166.278; 1088.056
801.739; 1443.667;  136.278; 1048.056
802.303; 1655.667;  160.278; 1259.056
802.866; 1611.667;  156.278; 1253.056
803.429; 1688.667;  113.278; 1294.056
803.992; 1589.667;  160.278; 1241.056
804.555; 1445.667;  149.278; 1085.056
805.118; 1397.667;  143.278; 1067.056
805.681; 1445.667;  165.278; 1122.056
806.244; 1469.667;  165.278; 1114.056
806.807; 1492.667;  159.278; 1230.056
807.369; 1384.667;  135.278; 1030.056
807.932; 1486.667;  164.278; 1165.056
808.495; 1760.667;  191.278; 1490.056
809.058; 1704.667;  215.278; 1444.056
809.620; 1505.667;  156.278; 1232.056
810.183; 1497.667;  158.278; 1226.056
810.745; 1518.667;  197.278; 1238.056
811.308; 1547.667;  168.278; 1246.056
811.870; 1655.667;  162.278; 1353.056
812.433; 1442.667;  181.278; 1147.056
812.995; 1500.667;  142.278; 1234.056
813.557; 1494.667;  157.278; 1274.056
814.120; 1469.667;  147.278; 1146.056
814.682; 1327.667;  152.278; 1036.056
815.244; 1402.667;  159.278; 1127.056
815.806; 1405.667;  152.278; 1132.056
816.368; 1336.667;  145.278; 1136.056
816.930; 1412.667;  112.278; 1170.056
817.492; 1583.667;  195.278; 1387.056
818.054; 1298.667;  112.278; 1093.056
818.616; 1346.667;  129.278; 1069.056
819.178; 1443.667;  193.278; 1215.056
819.740; 1267.667;  127.278; 1042.056
820.302; 1321.667;  116.278; 1097.056
820.864; 1566.667;  185.278; 1358.056
821.425; 1370.667;  185.278; 1092.056
821.987; 1417.667;  169.278; 1175.056
822.549; 1367.667;  156.278; 1118.056
823.110; 1428.667;  175.278; 1228.056
823.672; 1384.667;   93.278; 1180.056
824.233; 1368.667;  169.278; 1177.056
824.795; 1466.667;  137.278; 1255.056
825.356; 1217.667;  131.278;  998.056
825.918; 1283.667;  150.278; 1045.056
826.479; 1277.667;  131.278; 1043.056
827.040; 1349.667;  163.278; 1104.056
827.602; 1502.667;  175.278; 1311.056
828.163; 1402.667;  170.278; 1236.056
828.724; 1389.667;  180.278; 1142.056
829.285; 1360.667;   98.278; 1143.056
829.846; 1288.667;  162.278; 1149.056
830.407; 1436.667;  148.278; 1271.056
830.968; 1240.667;  180.278; 1069.056
831.529; 1310.667;  163.278; 1114.056
832.090; 1399.667;  186.278; 1257.056
832.651; 1189.667;  180.278; 1030.056
833.212; 1219.667;  149.278; 1115.056
833.772; 1255.667;  151.278; 1056.056
834.333; 1374.667;  180.278; 1232.056
834.894; 1239.667;  124.278; 1066.056
835.454; 1328.667;  107.278; 1158.056
836.015; 1191.667;   73.278; 1009.056
836.575; 1389.667;  176.278; 1253.056
837.136; 1220.667;  103.278; 1013.056
837.696; 1307.667;  163.278; 1244.056
838.257; 1241.667;  138.278; 1154.056
838.817; 1345.667;  151.278; 1210.056
839.378; 1334.667;  173.278; 1124.056
839.938; 1191.667;  128.278; 1056.056
840.498; 1125.667;  108.278; 1001.056
841.058; 1070.667;   98.278;  984.056
841.618; 1260.667;  152.278; 1122.056
842.179; 1232.667;  161.278; 1075.056
842.739; 1351.667;  161.278; 1187.056
843.299; 1174.667;  147.278; 1064.056
843.859; 1428.667;  152.278; 1353.056
844.419; 1169.667;  167.278; 1076.056
844.978; 1415.667;  193.278; 1297.056
845.538; 1303.667;  163.278; 1179.056
846.098; 1630.667;  228.278; 1435.056
846.658; 1101.667;   85.278; 1016.056
847.217; 1134.667;  112.278; 1003.056
847.777; 1365.667;  177.278; 1260.056
848.337; 1363.667;  176.278; 1291.056
848.896; 1420.667;  189.278; 1357.056
849.456; 1214.667;  133.278; 1097.056
850.015; 1154.667;  139.278; 1055.056
850.575; 1218.667;  139.278; 1137.056
851.134; 1147.667;  157.278; 1033.056
851.694; 1367.667;  159.278; 1230.056
852.253; 1316.667;  163.278; 1160.056
852.812; 1490.667;  170.278; 1333.056
853.371; 1186.667;  126.278; 1098.056
853.931; 1269.667;  137.278; 1144.056
854.490; 1183.667;  152.278; 1056.056
855.049; 1219.667;  142.278; 1125.056
855.608; 1292.667;  154.278; 1184.056
856.167; 1246.667;  144.278; 1116.056
856.726; 1416.667;  187.278; 1293.056
857.285; 1255.667;  155.278; 1139.056
857.844; 1389.667;  206.278; 1320.056
858.402; 1265.667;  130.278; 1149.056
858.961; 1324.667;  157.278; 1199.056
859.520; 1203.667;  158.278; 1054.056
860.079; 1285.667;  156.278; 1237.056
860.637; 1252.667;  116.278; 1129.056
861.196; 1276.667;  180.278; 1164.056
861.754; 1249.667;  129.278; 1191.056
862.313; 1139.667;  146.278; 1022.056
862.871; 1136.667;  151.278; 1086.056
863.430; 1131.667;  153.278; 1074.056
863.988; 1107.667;   97.278; 1039.056
864.547; 1596.667;  229.278; 1479.056
865.105; 1287.667;  154.278; 1238.056
865.663; 1247.667;  104.278; 1150.056
866.221; 1303.667;  171.278; 1202.056
866.779; 1239.667;  159.278; 1127.056
867.338; 1067.667;   81.278;  989.056
867.896; 1227.667;  182.278; 1166.056
868.454; 1103.667;  145.278; 1050.056
869.012; 1253.667;  120.278; 1178.056
869.570; 1209.667;  132.278; 1077.056
870.127; 1237.667;  151.278; 1198.056
870.685; 1139.667;  136.278; 1094.056
871.243; 1381.667;  151.278; 1306.056
871.801; 1112.667;  161.278; 1060.056
872.359; 1374.667;  155.278; 1290.056
872.916; 1326.667;  172.278; 1172.056
873.474; 1225.667;  127.278; 1144.056
874.031; 1286.667;  152.278; 1176.056
874.589; 1285.667;  171.278; 1205.056
875.146; 1150.667;  138.278; 1104.056
875.704; 1156.667;  129.278; 1079.056
876.261; 5566.667;  758.278; 5439.056
876.819; 1390.667;  211.278; 1367.056
877.376; 1738.667;  222.278; 1626.056
877.933; 1510.667;  216.278; 1447.056
878.490; 1297.667;  163.278; 1279.056
879.048; 1126.667;  148.278; 1055.056
879.605; 1362.667;  192.278; 1301.056
880.162; 1362.667;  176.278; 1266.056
880.719; 1310.667;  155.278; 1199.056
881.276; 1136.667;  160.278; 1097.056
881.833; 1384.667;  179.278; 1325.056
882.390; 1144.667;  167.278; 1030.056
882.947; 1288.667;  169.278; 1174.056
883.503; 1282.667;  134.278; 1237.056
884.060; 1367.667;  159.278; 1284.056
884.617; 1259.667;  146.278; 1150.056
885.174; 1325.667;  166.278; 1296.056
885.730; 1175.667;  171.278; 1122.056
886.287; 1234.667;  178.278; 1168.056
886.843; 1381.667;  162.278; 1283.056
887.400; 1089.667;   88.278; 1010.056
887.956; 1324.667;  148.278; 1265.056
888.513; 1413.667;  204.278; 1380.056
889.069; 1246.667;  156.278; 1153.056
889.625; 1192.667;  150.278; 1107.056
890.182; 1198.667;  171.278; 1106.056
890.738; 1293.667;  133.278; 1206.056
891.294; 1150.667;  147.278; 1107.056
891.850; 1110.667;  129.278; 1072.056
892.406; 1249.667;  158.278; 1131.056
892.962; 1190.667;  154.278; 1082.056
893.518; 1216.667;  165.278; 1166.056
894.074; 1148.667;  130.278; 1081.056
894.630; 1332.667;  177.278; 1291.056
895.186; 1106.667;  132.278; 1081.056
895.742; 1212.667;  160.278; 1138.056
896.298; 1293.667;  149.278; 1204.056
896.853; 1173.667;   98.278; 1122.056
897.409; 1369.667;  141.278; 1283.056
897.965; 1278.667;  153.278; 1216.056
898.520; 1211.667;  149.278; 1188.056
899.076; 1358.667;  173.278; 1257.056
899.631; 1300.667;  150.278; 1186.056
900.187; 1212.667;  159.278; 1139.056
900.742; 1350.667;  159.278; 1285.056
901.297; 1337.667;  173.278; 1321.056
901.853; 1306.667;  171.278; 1320.056
902.408; 1241.667;   74.278; 1124.056
902.963; 1309.667;  144.278; 1205.056
903.518; 1248.667;  164.278; 1210.056
904.074; 1350.667;  147.278; 1304.056
904.629; 1166.667;  162.278; 1119.056
905.184; 1222.667;  184.278; 1211.056
905.739; 1360.667;  201.278; 1316.056
906.294; 1387.667;  165.278; 1288.056
906.849; 1376.667;  162.278; 1267.056
907.403; 1252.667;  156.278; 1181.056
907.958; 1102.667;  119.278; 1033.056
908.513; 1291.667;  173.278; 1289.056
909.068; 1425.667;  195.278; 1377.056
909.622; 1351.667;  176.278; 1267.056
910.177; 1421.667;  185.278; 1354.056
910.732; 1284.667;  106.278; 1260.056
911.286; 1241.667;  189.278; 1176.056
911.841; 1184.667;  150.278; 1196.056
912.395; 1241.667;  151.278; 1157.056
912.950; 1302.667;  175.278; 1166.056
913.504; 1747.667;  210.278; 1701.056
914.058; 1168.667;  117.278; 1141.056
914.613; 1297.667;  136.278; 1251.056
915.167; 1270.667;  140.278; 1190.056
915.721; 1108.667;  150.278; 1032.056
916.275; 1353.667;  160.278; 1266.056
916.829; 1305.667;  171.278; 1260.056
917.383; 1256.667;  137.278; 1179.056
917.937; 1300.667;  171.278; 1262.056
918.491; 1287.667;  150.278; 1233.056
919.045; 1184.667;  163.278; 1174.056
919.599; 1222.667;  144.278; 1159.056
920.153; 1211.667;  155.278; 1167.056
920.706; 1333.667;  158.278; 1264.056
921.260; 1171.667;  158.278; 1178.056
921.814; 1187.667;  134.278; 1108.056
922.367; 1380.667;  193.278; 1361.056
922.921; 1347.667;  180.278; 1255.056
923.475; 1208.667;  116.278; 1145.056
924.028; 1335.667;  158.278; 1308.056
924.581; 1391.667;  208.278; 1359.056
925.135; 1405.667;  199.278; 1356.056
925.688; 1281.667;  181.278; 1267.056
926.242; 1215.667;  179.278; 1158.056
926.795; 1213.667;  114.278; 1155.056
927.348; 1307.667;  175.278; 1317.056
927.901; 1434.667;  190.278; 1363.056
928.454; 1170.667;  129.278; 1127.056
929.007; 1173.667;  166.278; 1148.056
929.560; 1170.667;  110.278; 1117.056
930.113; 1803.667;  222.278; 1790.056
930.666; 1576.667;  196.278; 1527.056
931.219; 1166.667;  195.278; 1187.056
931.772; 1208.667;  162.278; 1155.056
932.325; 1350.667;  172.278; 1304.056
932.878; 1103.667;  144.278; 1036.056
933.430; 1203.667;  203.278; 1223.056
933.983; 1270.667;  152.278; 1237.056
934.535; 1103.667;  130.278; 1051.056
935.088; 1126.667;  139.278; 1075.056
935.641; 1241.667;  159.278; 1223.056
936.193; 1365.667;  166.278; 1311.056
936.745; 1258.667;  169.278; 1234.056
937.298; 1263.667;  150.278; 1211.056
937.850; 1164.667;  178.278; 1117.056
938.402; 1218.667;  182.278; 1179.056
938.955; 1382.667;  200.278; 1365.056
939.507; 1136.667;  155.278; 1104.056
940.059; 1095.667;   92.278; 1099.056
940.611; 1353.667;  162.278; 1270.056
941.163; 1204.667;  156.278; 1199.056
941.715; 1022.667;  105.278;  952.056
942.267; 1259.667;  170.278; 1227.056
942.819; 1503.667;  211.278; 1433.056
943.371; 1186.667;  140.278; 1152.056
943.923; 1253.667;  137.278; 1219.056
944.474; 1960.667;  305.278; 1981.056
945.026; 1095.667;  146.278; 1061.056
945.578; 1265.667;  180.278; 1226.056
946.129; 1098.667;  145.278; 1055.056
946.681; 1126.667;  159.278; 1085.056
947.233; 1259.667;  165.278; 1258.056
947.784; 1097.667;  146.278; 1104.056
948.336; 1128.667;  165.278; 1058.056
948.887; 1178.667;  171.278; 1135.056
949.438; 1280.667;  176.278; 1230.056
949.990; 1203.667;  145.278; 1176.056
950.541; 1130.667;  134.278; 1135.056
951.092; 1483.667;  187.278; 1460.056
951.643; 1242.667;  164.278; 1171.056
952.194; 1183.667;  187.278; 1138.056
952.745; 1205.667;  135.278; 1161.056
953.296; 1174.667;  110.278; 1165.056
953.847; 1155.667;  156.278; 1137.056
954.398; 1200.667;  169.278; 1143.056
954.949; 1525.667;  238.278; 1436.056
955.500; 1374.667;  196.278; 1374.056
956.051; 1172.667;  190.278; 1166.056
956.602; 1373.667;  139.278; 1306.056
957.152; 1319.667;  135.278; 1227.056
957.703; 1210.667;  172.278; 1135.056
958.253; 1200.667;  169.278; 1172.056
958.804; 1095.667;  144.278; 1094.056
959.355; 1424.667;  208.278; 1430.056
959.905; 1305.667;  126.278; 1257.056
960.455; 1280.667;  171.278; 1269.056
961.006; 1439.667;  207.278; 1419.056
961.556; 1287.667;  179.278; 1212.056
962.106; 1249.667;  133.278; 1244.056
962.657; 1106.667;  148.278; 1114.056
963.207; 1149.667;  150.278; 1092.056
963.757; 1251.667;  172.278; 1205.056
964.307; 1371.667;  204.278; 1339.056
964.857; 1316.667;  169.278; 1279.056
965.407; 1334.667;  187.278; 1344.056
965.957; 1482.667;  226.278; 1473.056
966.507; 1115.667;  151.278; 1092.056
967.057; 1169.667;  173.278; 1159.056
967.606; 1287.667;  153.278; 1193.056
968.156; 1070.667;  126.278; 1059.056
968.706; 1214.667;  168.278; 1204.056
969.256; 1195.667;  174.278; 1203.056
969.805; 1464.667;  155.278; 1459.056
970.355; 1307.667;  175.278; 1304.056
970.904; 1002.667;  110.278;  983.056
971.454; 1264.667;  169.278; 1255.056
972.003; 1487.667;  202.278; 1459.056
972.552; 1169.667;  122.278; 1129.056
973.102; 1241.667;  150.278; 1243.056
973.651; 1272.667;  164.278; 1219.056
974.200; 1147.667;  123.278; 1139.056
974.750; 1215.667;  174.278; 1155.056
975.299; 1084.667;  136.278; 1074.056
975.848; 1220.667;  180.278; 1187.056
976.397; 1199.667;  161.278; 1211.056
976.946; 1307.667;  142.278; 1273.056
977.495; 1215.667;  170.278; 1211.056
978.044; 1291.667;  151.278; 1248.056
978.592; 1261.667;  159.278; 1197.056
979.141; 1205.667;  171.278; 1177.056
979.690; 1267.667;  162.278; 1218.056
980.239; 1039.667;   84.278;  997.056
980.787; 1273.667;  180.278; 1313.056
981.336; 1154.667;  174.278; 1124.056
981.885; 1240.667;  160.278; 1234.056
982.433; 1051.667;  146.278;  998.056
982.982; 1199.667;  121.278; 1178.056
983.530; 1358.667;  187.278; 1386.056
984.078; 1390.667;  188.278; 1329.056
984.627; 1085.667;  165.278; 1072.056
985.175; 1279.667;  170.278; 1246.056
985.723; 1301.667;  179.278; 1266.056
986.271; 1368.667;  172.278; 1364.056
986.819; 1192.667;  157.278; 1206.056
987.368; 1270.667;  173.278; 1267.056
987.916; 1173.667;  154.278; 1118.056
988.464; 1318.667;  190.278; 1254.056
989.012; 1289.667;  151.278; 1225.056
989.559; 1189.667;  123.278; 1206.056
990.107; 1326.667;  171.278; 1277.056
990.655; 1124.667;  172.278; 1114.056
991.203; 1380.667;  168.278; 1388.056
991.751; 1054.667;  160.278; 1064.056
992.298; 1404.667;  178.278; 1314.056
992.846; 1110.667;  130.278; 1074.056
993.393; 1183.667;  189.278; 1232.056
993.941; 1421.667;  185.278; 1321.056
994.488; 1176.667;  159.278; 1165.056
995.036; 1279.667;  186.278; 1236.056
995.583; 1056.667;  138.278; 1066.056
996.130; 1151.667;  135.278; 1097.056
996.678; 1184.667;  177.278; 1252.056
997.225; 1291.667;  132.278; 1254.056
997.772; 1245.667;  182.278; 1249.056
998.319; 1199.667;  140.278; 1198.056
998.866; 1189.667;  146.278; 1202.056
999.413; 1157.667;  131.278; 1091.056
999.960; 1467.667;  191.278; 1428.056
1000.507; 1020.667;  114.278;  990.056
1001.054; 1317.667;  183.278; 1316.056
1001.601; 1094.667;  156.278; 1070.056
1002.148; 1254.667;  168.278; 1245.056
1002.694; 1119.667;  114.278; 1105.056
1003.241; 1279.667;  198.278; 1288.056
1003.788; 1342.667;  174.278; 1291.056
1004.334; 1178.667;  171.278; 1230.056
1004.881; 1088.667;  127.278; 1072.056
1005.427; 1251.667;  172.278; 1250.056
1005.974; 1283.667;  126.278; 1265.056
1006.520; 1108.667;  180.278; 1117.056
1007.067; 1242.667;  130.278; 1230.056
1007.613; 1271.667;  198.278; 1305.056
1008.159; 1289.667;  173.278; 1250.056
1008.705; 1193.667;  166.278; 1158.056
1009.252; 1125.667;  115.278; 1114.056
1009.798; 1084.667;  164.278; 1086.056
1010.344; 1277.667;  172.278; 1264.056
1010.890; 1132.667;  155.278; 1142.056
1011.436; 1070.667;  168.278; 1112.056
1011.982; 1202.667;  182.278; 1188.056
1012.528; 1207.667;  149.278; 1134.056
1013.073; 1106.667;  165.278; 1133.056
1013.619; 1487.667;  158.278; 1456.056
1014.165; 1036.667;  135.278; 1097.056
1014.711; 1200.667;  144.278; 1187.056
1015.256; 1147.667;  135.278; 1100.056
1015.802; 1158.667;  143.278; 1144.056
1016.347; 1243.667;  168.278; 1257.056
1016.893; 1125.667;  176.278; 1130.056
1017.438; 1503.667;  171.278; 1487.056
1017.984; 1315.667;  180.278; 1293.056
1018.529; 1202.667;  202.278; 1171.056
1019.074; 1231.667;  131.278; 1198.056
1019.619; 1194.667;  185.278; 1158.056
1020.165; 1087.667;  164.278; 1137.056
1020.710; 1177.667;  169.278; 1150.056
1021.255; 1148.667;  132.278; 1169.056
1021.800; 1511.667;  200.278; 1470.056
1022.345; 1582.667;  191.278; 1536.056
1022.890; 1215.667;  197.278; 1170.056
1023.435; 1288.667;  185.278; 1284.056
1023.980; 1181.667;  195.278; 1138.056
1024.524; 1225.667;  159.278; 1214.056
1025.069; 1198.667;  180.278; 1123.056
1025.614; 1119.667;  125.278; 1074.056
1026.159; 1213.667;  159.278; 1153.056
1026.703; 1268.667;  168.278; 1256.056
1027.248; 1478.667;  176.278; 1446.056
1027.792; 1204.667;  173.278; 1239.056
1028.337; 1173.667;  181.278; 1136.056
1028.881; 1208.667;  146.278; 1168.056
1029.425; 1475.667;  217.278; 1445.056
1029.970; 1138.667;  165.278; 1102.056
1030.514; 1165.667;  159.278; 1131.056
1031.058; 1026.667;  141.278;  987.056
1031.602; 1159.667;  168.278; 1161.056
1032.147; 1307.667;  163.278; 1300.056
1032.691; 1092.667;  155.278; 1042.056
1033.235; 1212.667;  180.278; 1253.056
1033.779; 1346.667;  193.278; 1325.056
1034.323; 1197.667;  147.278; 1168.056
1034.866; 1237.667;  160.278; 1225.056
1035.410; 1277.667;  160.278; 1256.056
1035.954; 1257.667;  177.278; 1208.056
1036.498; 1224.667;  163.278; 1222.056
1037.041; 1240.667;  148.278; 1173.056
1037.585; 1212.667;  147.278; 1142.056
1038.129; 1214.667;  165.278; 1161.056
1038.672; 1184.667;  141.278; 1181.056
1039.216; 1343.667;  204.278; 1302.056
1039.759; 1163.667;  175.278; 1184.056
1040.302; 1107.667;  144.278; 1114.056
1040.846; 1108.667;  167.278; 1156.056
1041.389; 1197.667;  161.278; 1200.056
1041.932; 1289.667;  157.278; 1336.056
1042.475; 1283.667;  156.278; 1221.056
1043.019; 1375.667;  201.278; 1388.056
1043.562; 1155.667;  176.278; 1149.056
1044.105; 1236.667;  161.278; 1161.056
1044.648; 1384.667;  163.278; 1347.056
1045.191; 1241.667;  165.278; 1198.056
1045.734; 1079.667;  147.278; 1015.056
1046.276; 1199.667;  157.278; 1216.056
1046.819; 1195.667;  145.278; 1194.056
1047.362; 1157.667;  156.278; 1111.056
1047.905; 1298.667;  187.278; 1266.056
1048.447; 1223.667;  138.278; 1221.056
1048.990; 1255.667;  177.278; 1195.056
1049.532; 1195.667;  147.278; 1156.056
1050.075; 1176.667;  163.278; 1213.056
1050.617; 1418.667;  180.278; 1354.056
1051.160; 1101.667;  138.278; 1030.056
1051.702; 1291.667;  151.278; 1263.056
1052.244; 1249.667;  188.278; 1193.056
1052.787; 1421.667;  182.278; 1408.056
1053.329; 1292.667;  179.278; 1270.056
1053.871;  940.667;  116.278;  836.056
1054.413; 1337.667;  158.278; 1275.056
1054.955; 1148.667;  113.278; 1114.056
1055.497; 1248.667;  176.278; 1167.056
1056.039; 1205.667;  168.278; 1222.056
1056.581; 1161.667;  179.278; 1181.056
1057.123; 1140.667;  148.278; 1133.056
1057.665; 1101.667;  127.278; 1064.056
1058.206; 1205.667;  147.278; 1161.056
1058.748; 1104.667;  101.278; 1082.056
1059.290; 1212.667;  134.278; 1186.056
1059.831; 1331.667;  183.278; 1324.056
1060.373; 1082.667;  134.278; 1017.056
1060.914; 1244.667;  152.278; 1226.056
1061.456; 1135.667;  145.278; 1200.056
1061.997; 1381.667;  148.278; 1306.056
1062.538; 1227.667;  156.278; 1183.056
1063.080; 1184.667;  152.278; 1192.056
1063.621; 1209.667;  161.278; 1128.056
1064.162; 1193.667;  129.278; 1213.056
1064.703; 1174.667;  137.278; 1160.056
1065.244; 1201.667;  165.278; 1199.056
1065.786; 1235.667;  165.278; 1183.056
1066.327; 1254.667;  145.278; 1253.056
1066.867; 1050.667;  147.278; 1014.056
1067.408; 1182.667;  169.278; 1153.056
1067.949; 1166.667;  167.278; 1147.056
1068.490; 1267.667;  191.278; 1261.056
1069.031; 1262.667;  181.278; 1244.056
1069.571; 1158.667;  130.278; 1156.056
1070.112; 1154.667;  133.278; 1182.056
1070.653; 1086.667;   76.278; 1017.056
1071.193; 1135.667;  168.278; 1112.056
1071.734; 1288.667;  157.278; 1239.056
1072.274; 1292.667;  166.278; 1217.056
1072.815; 1090.667;  139.278; 1110.056
1073.355; 1218.667;  179.278; 1174.056
1073.895; 1261.667;  115.278; 1201.056
1074.436; 1061.667;  149.278; 1031.056
1074.976; 1253.667;  160.278; 1222.056
1075.516; 1282.667;  160.278; 1256.056
1076.056; 1192.667;  128.278; 1208.056
1076.596; 1124.667;  172.278; 1146.056
1077.136; 1274.667;  145.278; 1201.056
1077.676; 1200.667;  149.278; 1156.056
1078.216; 1138.667;  169.278; 1163.056
1078.756; 1133.667;  147.278; 1071.056
1079.296; 1343.667;  177.278; 1384.056
1079.835; 1190.667;  195.278; 1200.056
1080.375; 1143.667;  121.278; 1109.056
1080.915; 1122.667;  121.278; 1087.056
1081.454; 1202.667;  172.278; 1161.056
1081.994; 1079.667;  159.278; 1061.056
1082.533; 1018.667;  152.278; 1011.056
1083.073; 1087.667;  151.278; 1046.056
1083.612; 1480.667;  193.278; 1475.056
1084.151; 1224.667;  147.278; 1226.056
1084.691; 1231.667;  178.278; 1156.056
1085.230; 1180.667;  151.278; 1139.056
1085.769; 1163.667;  124.278; 1198.056
1086.308; 1033.667;  119.278; 1011.056
1086.847; 1517.667;  130.278; 1502.056
1087.386; 1041.667;  138.278;  979.056
1087.925; 1111.667;  144.278; 1121.056
1088.464; 1447.667;  221.278; 1354.056
1089.003; 1078.667;  156.278; 1115.056
1089.542; 1114.667;  144.278; 1102.056
1090.081; 1116.667;  128.278; 1091.056
1090.620; 1189.667;  171.278; 1132.056
1091.158; 1197.667;  161.278; 1174.056
1091.697; 1306.667;  175.278; 1265.056
1092.236; 1216.667;  191.278; 1272.056
1092.774; 1231.667;  141.278; 1177.056
1093.313; 1178.667;  138.278; 1179.056
1093.851; 1238.667;  151.278; 1218.056
1094.389; 1246.667;  164.278; 1214.056
1094.928; 1331.667;  186.278; 1269.056
1095.466; 1029.667;  163.278; 1060.056
1096.004; 1064.667;  166.278; 1059.056
1096.542; 1258.667;  148.278; 1256.056
1097.081; 1378.667;  195.278; 1322.056
1097.619; 1349.667;  182.278; 1310.056
1098.157; 1136.667;  148.278; 1121.056
1098.695; 1499.667;  176.278; 1563.056
1099.233; 1432.667;  143.278; 1383.056
1099.771; 1232.667;  138.278; 1224.056
1100.308; 1132.667;  154.278; 1038.056
1100.846; 1189.667;  147.278; 1186.056
1101.384; 1351.667;  157.278; 1281.056
1101.922; 1221.667;  144.278; 1239.056
1102.459; 1209.667;  154.278; 1237.056
1102.997; 1853.667;  220.278; 1738.056
1103.534; 1204.667;  162.278; 1180.056
1104.072; 1139.667;  161.278; 1098.056
1104.609; 1224.667;  173.278; 1153.056
1105.146; 1262.667;  160.278; 1208.056
1105.684; 1184.667;  129.278; 1188.056
1106.221; 1443.667;  168.278; 1413.056
1106.758; 1255.667;  145.278; 1248.056
1107.295; 1449.667;  185.278; 1476.056
1107.833; 1288.667;  175.278; 1271.056
1108.370; 1107.667;  143.278; 1131.056
1108.907; 1269.667;  177.278; 1244.056
1109.444; 1303.667;  145.278; 1243.056
1109.981; 1224.667;  173.278; 1211.056
1110.517; 1351.667;  178.278; 1359.056
1111.054; 1131.667;  132.278; 1099.056
1111.591; 1346.667;  195.278; 1383.056
1112.128; 1213.667;  191.278; 1207.056
1112.664; 1007.667;   97.278; 1027.056
1113.201; 1125.667;  162.278; 1119.056
1113.737; 1243.667;  139.278; 1283.056
1114.274; 1234.667;  184.278; 1169.056
1114.810; 1248.667;  192.278; 1265.056
1115.347; 1275.667;  183.278; 1265.056
1115.883; 1156.667;  122.278; 1133.056
1116.419; 1231.667;  176.278; 1257.056
1116.956; 1220.667;  151.278; 1190.056
1117.492; 1145.667;  157.278; 1120.056
1118.028; 1757.667;  204.278; 1734.056
1118.564; 1195.667;  160.278; 1174.056
1119.100; 1135.667;  105.278; 1114.056
1119.636; 1397.667;  186.278; 1388.056
1120.172; 1326.667;  207.278; 1325.056
1120.708; 1450.667;  185.278; 1498.056
1121.244; 1233.667;  147.278; 1214.056
1121.780; 1309.667;  175.278; 1346.056
1122.315; 1200.667;  126.278; 1161.056
1122.851; 1310.667;  180.278; 1246.056
1123.387; 1152.667;  163.278; 1146.056
1123.922; 1276.667;  180.278; 1246.056
1124.458; 1186.667;  172.278; 1258.056
1124.993; 1217.667;  160.278; 1218.056
1125.529; 1532.667;  177.278; 1490.056
1126.064; 1359.667;  196.278; 1296.056
1126.599; 1271.667;  187.278; 1264.056
1127.135; 1310.667;  205.278; 1264.056
1127.670; 1256.667;  187.278; 1242.056
1128.205; 1045.667;  177.278; 1046.056
1128.740; 1157.667;  125.278; 1113.056
1129.275; 1115.667;  130.278; 1055.056
1129.810; 1204.667;  181.278; 1189.056
1130.345; 1309.667;  166.278; 1234.056
1130.880; 1060.667;  153.278; 1036.056
1131.415; 1318.667;  179.278; 1344.056
1131.950; 1163.667;  134.278; 1121.056
1132.484; 1235.667;  161.278; 1266.056
1133.019; 1294.667;  172.278; 1284.056
1133.554; 1229.667;  149.278; 1201.056
1134.088; 1172.667;  162.278; 1157.056
1134.623; 1073.667;  158.278; 1094.056
1135.157; 1375.667;   73.278; 1274.056
1135.692; 1186.667;  151.278; 1209.056
1136.226; 1370.667;  189.278; 1386.056
1136.761; 1323.667;  190.278; 1254.056
1137.295; 1150.667;  148.278; 1122.056
1137.829; 1135.667;  153.278; 1112.056
1138.363; 1100.667;  138.278; 1112.056
1138.897; 1416.667;  229.278; 1404.056
1139.431; 1393.667;  202.278; 1368.056
1139.965; 1160.667;  163.278; 1100.056
1140.499; 1337.667;  213.278; 1339.056
1141.033; 1141.667;  148.278; 1167.056
1141.567; 1287.667;  125.278; 1245.056
1142.101; 1142.667;  178.278; 1141.056
1142.635; 1085.667;  138.278; 1089.056
1143.169; 1096.667;  139.278; 1063.056
1143.702; 1252.667;  169.278; 1197.056
1144.236; 1185.667;  173.278; 1200.056
1144.769; 1278.667;  162.278; 1318.056
1145.303; 1164.667;  154.278; 1194.056
1145.836; 1249.667;  158.278; 1233.056
1146.370; 1417.667;  195.278; 1420.056
1146.903; 1212.667;  177.278; 1109.056
1147.436; 1316.667;  160.278; 1282.056
1147.970; 1413.667;  158.278; 1386.056
1148.503; 1314.667;  182.278; 1330.056
1149.036; 1170.667;  142.278; 1121.056
1149.569; 1303.667;  181.278; 1224.056
1150.102; 1201.667;  149.278; 1168.056
1150.635; 1004.667;  152.278; 1000.056
1151.168; 1232.667;  134.278; 1234.056
1151.701; 1182.667;  176.278; 1158.056
1152.234; 1227.667;  177.278; 1237.056
1152.766; 1322.667;  195.278; 1273.056
1153.299; 1185.667;  159.278; 1119.056
1153.832; 1113.667;  166.278; 1160.056
1154.364; 1090.667;  111.278; 1048.056
1154.897; 1029.667;  103.278;  944.056
1155.430; 1048.667;  158.278; 1086.056
1155.962; 1210.667;  182.278; 1175.056
1156.494; 1184.667;  164.278; 1151.056
1157.027; 1118.667;  174.278; 1177.056
1157.559; 1318.667;  166.278; 1247.056
1158.091; 1189.667;  184.278; 1156.056
1158.623; 1238.667;  166.278; 1265.056
1159.156; 1263.667;  175.278; 1293.056
1159.688; 1222.667;  164.278; 1192.056
1160.220; 1224.667;  154.278; 1197.056
1160.752; 1148.667;  143.278; 1093.056
1161.284; 1060.667;  134.278; 1072.056
1161.816; 1265.667;  178.278; 1204.056
1162.347; 1248.667;  147.278; 1211.056
1162.879; 1421.667;  182.278; 1332.056
1163.411; 1121.667;  128.278; 1188.056
1163.943; 1177.667;  152.278; 1191.056
1164.474; 1176.667;  172.278; 1173.056
1165.006; 1189.667;  126.278; 1127.056
1165.537; 1152.667;  126.278; 1111.056
1166.069; 1174.667;  161.278; 1127.056
1166.600; 1166.667;  141.278; 1265.056
1167.132; 1211.667;  153.278; 1124.056
1167.663; 1734.667;  212.278; 1749.056
1168.194; 1175.667;  130.278; 1185.056
1168.725; 1236.667;  161.278; 1209.056
1169.256; 1198.667;  125.278; 1198.056
1169.788; 1295.667;  161.278; 1309.056
1170.319; 1178.667;  157.278; 1130.056
1170.850; 1111.667;  152.278; 1092.056
1171.380; 1225.667;  141.278; 1194.056
1171.911; 1116.667;  137.278; 1138.056
1172.442;  993.667;  141.278;  958.056
1172.973; 1420.667;  183.278; 1442.056
1173.504; 1227.667;  189.278; 1211.056
1174.034; 1246.667;  189.278; 1256.056
1174.565; 1131.667;  141.278; 1158.056
1175.096; 1306.667;  155.278; 1274.056
1175.626; 1239.667;  166.278; 1194.056
1176.157; 1271.667;  167.278; 1303.056
1176.687; 1346.667;  195.278; 1309.056
1177.217; 1275.667;  139.278; 1250.056
1177.748; 1244.667;  184.278; 1204.056
1178.278; 1185.667;  162.278; 1176.056
1178.808; 1173.667;  146.278; 1145.056
1179.338; 1246.667;  128.278; 1236.056
1179.868; 1227.667;  178.278; 1226.056
1180.398; 1277.667;  157.278; 1271.056
1180.928; 1110.667;  124.278; 1105.056
1181.458; 1342.667;  166.278; 1282.056
1181.988; 1256.667;  153.278; 1189.056
1182.518; 1115.667;  104.278; 1144.056
1183.048; 1052.667;  177.278; 1069.056
1183.577; 1308.667;  169.278; 1290.056
1184.107; 1016.667;   88.278;  996.056
1184.637; 1179.667;  127.278; 1182.056
1185.166; 1209.667;  181.278; 1123.056
1185.696; 1325.667;  153.278; 1324.056
1186.225; 1293.667;  203.278; 1278.056
1186.755; 1163.667;  183.278; 1147.056
1187.284; 1383.667;  194.278; 1376.056
1187.813; 1246.667;  111.278; 1227.056
1188.342; 1326.667;  193.278; 1309.056
1188.872; 1190.667;  132.278; 1186.056
1189.401; 1085.667;  158.278; 1089.056
1189.930; 1373.667;  172.278; 1319.056
1190.459; 1232.667;  160.278; 1189.056
1190.988; 1368.667;  165.278; 1314.056
1191.517; 1256.667;  173.278; 1212.056
1192.046; 1266.667;  134.278; 1228.056
1192.574; 1078.667;  161.278; 1099.056
1193.103; 1191.667;  145.278; 1146.056
1193.632; 1103.667;  161.278; 1096.056
1194.161; 1135.667;  161.278; 1103.056
1194.689; 1088.667;   78.278; 1057.056
1195.218; 1330.667;  133.278; 1277.056
1195.746; 1121.667;  173.278; 1138.056
1196.275; 1153.667;  155.278; 1061.056
1196.803; 1215.667;  165.278; 1159.056
1197.331; 1287.667;  164.278; 1222.056
1197.860; 1144.667;  161.278; 1074.056
1198.388; 1180.667;  159.278; 1130.056
1198.916; 1100.667;  182.278; 1146.056
1199.444; 1293.667;  169.278; 1219.056
1199.972; 1111.667;  139.278; 1064.056
1200.500; 1311.667;  183.278; 1272.056
1201.028; 1229.667;  164.278; 1204.056
1201.556; 1397.667;  160.278; 1348.056
1202.084; 1340.667;  189.278; 1349.056
1202.612; 1251.667;  142.278; 1201.056
1203.139; 1423.667;  204.278; 1393.056
1203.667; 1320.667;  183.278; 1307.056
1204.195; 1132.667;  137.278; 1063.056
1204.722; 1161.667;  145.278; 1108.056
1205.250; 1279.667;  186.278; 1238.056
1205.777; 1263.667;  169.278; 1234.056
1206.305; 1265.667;  186.278; 1217.056
1206.832; 1543.667;  197.278; 1471.056
1207.359; 1256.667;  145.278; 1195.056
1207.887; 1363.667;  180.278; 1250.056
1208.414; 1331.667;  177.278; 1260.056
1208.941; 1288.667;  176.278; 1198.056
1209.468; 1411.667;  195.278; 1353.056
1209.995; 1253.667;  171.278; 1159.056
1210.522; 1265.667;  171.278; 1178.056
1211.049; 1359.667;  157.278; 1219.056
1211.576; 1381.667;  177.278; 1324.056
1212.103; 1301.667;  112.278; 1176.056
1212.630; 1350.667;  180.278; 1233.056
1213.156; 1172.667;  162.278; 1074.056
1213.683; 1341.667;  175.278; 1231.056
1214.210; 1320.667;  143.278; 1159.056
1214.736; 1260.667;  181.278; 1215.056
1215.263; 1378.667;  151.278; 1308.056
1215.789; 1217.667;  154.278; 1080.056
1216.315; 1380.667;  188.278; 1243.056
1216.842; 1329.667;   96.278; 1119.056
1217.368; 1381.667;  177.278; 1199.056
1217.894; 1294.667;  166.278; 1183.056
1218.421; 1486.667;  142.278; 1319.056
1218.947; 1245.667;  121.278; 1083.056
1219.473; 1428.667;  147.278; 1221.056
1219.999; 1398.667;  137.278; 1237.056
1220.525; 1450.667;  168.278; 1307.056
1221.051; 1430.667;  158.278; 1221.056
1221.576; 1360.667;  171.278; 1109.056
1222.102; 1739.667;  238.278; 1586.056
1222.628; 1442.667;  187.278; 1184.056
1223.154; 1338.667;  135.278; 1117.056
1223.679; 1402.667;  142.278; 1112.056
1224.205; 1423.667;  160.278; 1168.056
1224.730; 1503.667;  174.278; 1272.056
1225.256; 1378.667;  146.278; 1101.056
1225.781; 1492.667;  190.278; 1256.056
1226.307; 1474.667;  158.278; 1159.056
1226.832; 1361.667;  133.278; 1085.056
1227.357; 1427.667;  136.278; 1113.056
1227.882; 1626.667;  188.278; 1302.056
1228.408; 1557.667;  134.278; 1317.056
1228.933; 1678.667;  202.278; 1353.056
1229.458; 1452.667;  127.278; 1150.056
1229.983; 1409.667;  159.278; 1074.056
1230.508; 1574.667;  157.278; 1266.056
1231.033; 1580.667;  172.278; 1236.056
1231.557; 1454.667;  162.278; 1092.056
1232.082; 1497.667;  148.278; 1146.056
1232.607; 1588.667;  140.278; 1186.056
1233.132; 1736.667;  179.278; 1294.056
1233.656; 1683.667;  191.278; 1367.056
1234.181; 1506.667;  156.278; 1095.056
1234.705; 1636.667;  177.278; 1282.056
1235.230; 2019.667;  213.278; 1616.056
1235.754; 1559.667;  102.278; 1174.056
1236.278; 1583.667;  156.278; 1139.056
1236.803; 1454.667;  157.278; 1027.056
1237.327; 1821.667;  187.278; 1390.056
1237.851; 1607.667;  153.278; 1197.056
1238.375; 1597.667;  154.278; 1158.056
1238.899; 1745.667;  155.278; 1271.056
1239.423; 1786.667;  171.278; 1291.056
1239.947; 1538.667;  170.278; 1122.056
1240.471; 1623.667;  103.278; 1114.056
1240.995; 1732.667;  182.278; 1278.056
1241.519; 1646.667;  132.278; 1141.056
1242.042; 1718.667;  134.278; 1265.056
1242.566; 1670.667;  158.278; 1124.056
1243.090; 1617.667;  148.278; 1144.056
1243.613; 1633.667;  172.278; 1166.056
1244.137; 1754.667;  157.278; 1240.056
1244.660; 1908.667;  200.278; 1332.056
1245.184; 1588.667;  130.278; 1071.056
1245.707; 1680.667;  173.278; 1107.056
1246.230; 1722.667;  175.278; 1250.056
1246.753; 1622.667;  155.278; 1069.056
1247.277; 1655.667;  139.278; 1167.056
1247.800; 2281.667;  224.278; 1871.056
1248.323; 1911.667;  133.278; 1313.056
1248.846; 1884.667;  200.278; 1286.056
1249.369; 1778.667;  152.278; 1212.056
1249.892; 1701.667;  162.278; 1127.056
1250.415; 1986.667;  189.278; 1359.056
1250.937; 1903.667;  191.278; 1316.056
1251.460; 1925.667;  125.278; 1370.056
1251.983; 1892.667;  161.278; 1319.056
1252.505; 1776.667;  140.278; 1171.056
1253.028; 2246.667;  231.278; 1637.056
1253.551; 2179.667;  232.278; 1525.056
1254.073; 1820.667;  181.278; 1160.056
1254.595; 1721.667;  125.278; 1123.056
1255.118; 1853.667;  179.278; 1265.056
1255.640; 1890.667;  178.278; 1266.056
1256.162; 1619.667;  137.278; 1058.056
1256.685; 1751.667;  175.278; 1095.056
1257.207; 1908.667;  161.278; 1249.056
1257.729; 1920.667;  114.278; 1200.056
1258.251; 1856.667;  200.278; 1208.056
1258.773; 2005.667;  183.278; 1342.056
1259.295; 2001.667;  206.278; 1331.056
1259.816; 1895.667;  187.278; 1214.056
1260.338; 1829.667;  158.278; 1183.056
1260.860; 1881.667;  109.278; 1137.056
1261.382; 1972.667;  186.278; 1184.056
1261.903; 1892.667;  136.278; 1223.056
1262.425; 1783.667;  130.278; 1170.056
1262.946; 1814.667;  146.278; 1135.056
1263.468; 2104.667;  185.278; 1402.056
1263.989; 2041.667;  146.278; 1361.056
1264.511; 1985.667;  175.278; 1209.056
1265.032; 1917.667;  168.278; 1256.056
1265.553; 1922.667;  184.278; 1233.056
1266.074; 1961.667;  163.278; 1216.056
1266.596; 2024.667;  162.278; 1310.056
1267.117; 1956.667;  122.278; 1228.056
1267.638; 1928.667;  173.278; 1191.056
1268.159; 2028.667;  181.278; 1252.056
1268.680; 1908.667;  178.278; 1237.056
1269.200; 1833.667;  158.278; 1068.056
1269.721; 1961.667;  154.278; 1213.056
1270.242; 2167.667;  179.278; 1353.056
1270.763; 1879.667;  165.278; 1057.056
1271.283; 2037.667;  162.278; 1272.056
1271.804; 2114.667;  204.278; 1343.056
1272.325; 1954.667;  162.278; 1124.056
1272.845; 1885.667;  124.278; 1120.056
1273.365; 2123.667;  131.278; 1314.056
1273.886; 2172.667;  238.278; 1417.056
1274.406; 2240.667;  201.278; 1441.056
1274.926; 1922.667;  172.278; 1147.056
1275.447; 2108.667;  193.278; 1317.056
1275.967; 2185.667;  188.278; 1348.056
1276.487; 2027.667;  128.278; 1192.056
1277.007; 2269.667;  207.278; 1406.056
1277.527; 2102.667;  169.278; 1287.056
1278.047; 2051.667;  167.278; 1288.056
1278.567; 1912.667;  155.278; 1119.056
1279.086; 2035.667;  163.278; 1197.056
1279.606; 1934.667;  126.278; 1128.056
1280.126; 2086.667;  185.278; 1271.056
1280.645; 2051.667;  158.278; 1217.056
1281.165; 2055.667;  190.278; 1239.056
1281.685; 1949.667;  156.278; 1114.056
1282.204; 2124.667;  166.278; 1275.056
1282.723; 2162.667;  133.278; 1319.056
1283.243; 2415.667;  222.278; 1536.056
1283.762; 1995.667;  178.278; 1207.056
1284.281; 2098.667;  179.278; 1314.056
1284.800; 2035.667;  162.278; 1199.056
1285.320; 1928.667;  141.278; 1055.056
1285.839; 2019.667;  124.278; 1135.056
1286.358; 2079.667;   82.278; 1191.056
1286.877; 1938.667;  150.278; 1090.056
1287.396; 2115.667;  192.278; 1251.056
1287.914; 2239.667;  229.278; 1353.056
1288.433; 2143.667;  179.278; 1285.056
1288.952; 2309.667;  156.278; 1413.056
1289.471; 2226.667;  190.278; 1258.056
1289.989; 2211.667;  193.278; 1375.056
1290.508; 2487.667;  231.278; 1636.056
1291.026; 2051.667;  152.278; 1206.056
1291.545; 1964.667;  127.278; 1102.056
1292.063; 2006.667;  156.278; 1118.056
1292.582; 2171.667;  193.278; 1241.056
1293.100; 2097.667;  172.278; 1207.056
1293.618; 2041.667;  169.278; 1200.056
1294.136; 2279.667;  166.278; 1350.056
1294.654; 1912.667;  139.278; 1084.056
1295.173; 2365.667;  165.278; 1406.056
1295.691; 2118.667;  179.278; 1223.056
1296.208; 2110.667;  185.278; 1233.056
1296.726; 2005.667;  166.278; 1118.056
1297.244; 2183.667;  190.278; 1239.056
1297.762; 1938.667;  105.278; 1114.056
1298.280; 2008.667;  142.278; 1151.056
1298.797; 2326.667;  185.278; 1418.056
1299.315; 2062.667;  146.278; 1152.056
1299.833; 2279.667;  216.278; 1405.056
1300.350; 2132.667;  185.278; 1256.056
1300.868; 2043.667;  110.278; 1165.056
1301.385; 2062.667;  107.278; 1192.056
1301.902; 2176.667;  210.278; 1275.056
1302.420; 2171.667;  199.278; 1266.056
1302.937; 1909.667;  167.278; 1083.056
1303.454; 2067.667;  130.278; 1220.056
1303.971; 2054.667;  148.278; 1173.056
1304.488; 2183.667;  178.278; 1339.056
1305.005; 2169.667;  188.278; 1280.056
1305.522; 2142.667;  154.278; 1261.056
1306.039; 1947.667;  154.278; 1153.056
1306.556; 2142.667;  169.278; 1300.056
1307.073; 2159.667;  188.278; 1295.056
1307.589; 2148.667;  135.278; 1299.056
1308.106; 1862.667;  150.278;  990.056
1308.623; 2147.667;  176.278; 1298.056
1309.139; 2102.667;  173.278; 1273.056
1309.656; 1915.667;  161.278; 1047.056
1310.172; 1975.667;  126.278; 1095.056
1310.688; 2214.667;  190.278; 1348.056
1311.205; 2157.667;  155.278; 1300.056
1311.721; 1912.667;  137.278; 1060.056
1312.237; 1963.667;  165.278; 1083.056
1312.753; 2027.667;  166.278; 1207.056
1313.269; 2154.667;  142.278; 1329.056
1313.785; 2130.667;  216.278; 1317.056
1314.301; 1933.667;  145.278; 1093.056
1314.817; 2093.667;  165.278; 1225.056
1315.333; 2047.667;  174.278; 1249.056
1315.849; 1980.667;  148.278; 1150.056
1316.365; 2088.667;  167.278; 1398.056
1316.880; 2154.667;  187.278; 1314.056
1317.396; 2078.667;  185.278; 1248.056
1317.912; 1917.667;  168.278; 1098.056
1318.427; 2083.667;  195.278; 1352.056
1318.943; 2045.667;  176.278; 1204.056
1319.458; 2118.667;  122.278; 1320.056
1319.973; 2046.667;  157.278; 1295.056
1320.489; 1988.667;  167.278; 1184.056
1321.004; 2019.667;  170.278; 1219.056
1321.519; 2026.667;  187.278; 1243.056
1322.034; 2174.667;  186.278; 1319.056
1322.549; 2044.667;  163.278; 1265.056
1323.064; 1905.667;  154.278; 1193.056
1323.579; 2171.667;  194.278; 1361.056
1324.094; 1984.667;  184.278; 1181.056
1324.609; 2408.667;  254.278; 1755.056
1325.124; 2035.667;  184.278; 1232.056
1325.638; 2156.667;  154.278; 1388.056
1326.153; 2237.667;  202.278; 1466.056
1326.668; 1963.667;  159.278; 1210.056
1327.182; 2139.667;  196.278; 1337.056
1327.697; 2039.667;  187.278; 1241.056
1328.211;   55.667;   27.278;   49.056
1328.726;  -12.333;  -25.722;   -9.944
1329.240;    7.667;    5.278;   13.056
1329.754;   14.667;   -8.722;   -9.944
1330.268;   12.667;   -7.722;  -26.944
1330.783;  -26.333;    4.278;    4.056
1331.297;  -10.333;   12.278;   12.056
1331.811;   23.667;  -38.722;   12.056
1332.325;   -5.333;    6.278;   -1.944
1332.839;   11.667;    9.278;    0.056
1333.352;  -17.333;   -4.722;   11.056
1333.866;  -21.333;    7.278;  -20.944
1334.380;  -12.333;    1.278;   15.056
1334.894;   14.667;   -9.722;    0.056
1335.407;    5.667;   15.278;   -0.944
1335.921;    4.667;   16.278;   -2.944
1336.434;   -1.333;   10.278;    1.056
1336.948;  -10.333;   -2.722;  -20.944
1337.461;   -1.333;    4.278;   17.056
1337.975;   10.667;  -19.722;   -0.944

